time[ns] Raw_signal[mV]
-11.100000 0.072629
-11.050000 0.117165
-11.000000 0.154850
-10.950000 0.168553
-10.900000 0.199386
-10.850000 0.240498
-10.800000 0.264479
-10.750000 0.278182
-10.700000 0.291886
-10.650000 0.309015
-10.600000 0.319293
-10.550000 0.332996
-10.500000 0.329571
-10.450000 0.319293
-10.400000 0.298738
-10.350000 0.250775
-10.300000 0.195961
-10.250000 0.151425
-10.200000 0.079481
-10.150000 -0.023296
-10.100000 -0.074685
-10.050000 -0.047277
-10.000000 -0.030148
-9.950000 -0.040426
-9.900000 -0.026722
-9.850000 0.010963
-9.800000 0.004111
-9.750000 -0.033574
-9.700000 -0.074685
-9.650000 -0.156906
-9.600000 -0.276812
-9.550000 -0.383015
-9.500000 -0.478939
-9.450000 -0.612549
-9.400000 -0.753011
-9.350000 -0.828381
-9.300000 -0.828381
-9.250000 -0.800973
-9.200000 -0.749584
-9.150000 -0.633105
-9.100000 -0.461810
-9.050000 -0.280238
-9.000000 -0.105517
-8.950000 0.086332
-8.900000 0.271330
-8.850000 0.411791
-8.800000 0.521420
-8.750000 0.624197
-8.700000 0.689289
-8.650000 0.706418
-8.600000 0.709844
-8.550000 0.679011
-8.500000 0.596789
-8.450000 0.500865
-8.400000 0.425495
-8.350000 0.336423
-8.300000 0.267905
-8.250000 0.261052
-8.200000 0.264479
-8.150000 0.271330
-8.100000 0.319293
-8.050000 0.387811
-8.000000 0.425495
-7.950000 0.459755
-7.900000 0.487162
-7.850000 0.452903
-7.800000 0.401515
-7.750000 0.387810
-7.700000 0.343274
-7.650000 0.233645
-7.600000 0.161701
-7.550000 0.141147
-7.500000 0.089758
-7.450000 0.017815
-7.400000 -0.013018
-7.350000 -0.002740
-7.300000 0.010963
-7.250000 0.038370
-7.200000 0.058925
-7.150000 0.072628
-7.100000 0.100036
-7.050000 0.124017
-7.000000 0.120591
-6.950000 0.110313
-6.900000 0.127443
-6.850000 0.144573
-6.800000 0.158276
-6.750000 0.195961
-6.700000 0.254201
-6.650000 0.295312
-6.600000 0.326145
-6.550000 0.398089
-6.500000 0.470032
-6.450000 0.504291
-6.400000 0.552253
-6.350000 0.631049
-6.300000 0.682437
-6.250000 0.699567
-6.200000 0.733826
-6.150000 0.757807
-6.100000 0.720122
-6.050000 0.668733
-6.000000 0.648178
-5.950000 0.603642
-5.900000 0.507717
-5.850000 0.401514
-5.800000 0.298737
-5.750000 0.185683
-5.700000 0.072628
-5.650000 0.000685
-5.600000 -0.050703
-5.550000 -0.102092
-5.500000 -0.153480
-5.450000 -0.218572
-5.400000 -0.276812
-5.350000 -0.307645
-5.300000 -0.328201
-5.250000 -0.321348
-5.200000 -0.280238
-5.150000 -0.225424
-5.100000 -0.177461
-5.050000 -0.112369
-5.000000 -0.002740
-4.950000 0.103462
-4.900000 0.165127
-4.850000 0.216516
-4.800000 0.271330
-4.750000 0.302163
-4.700000 0.291886
-4.650000 0.247349
-4.600000 0.199387
-4.550000 0.158276
-4.500000 0.110314
-4.450000 0.072629
-4.400000 0.079481
-4.350000 0.117165
-4.300000 0.158276
-4.250000 0.230220
-4.200000 0.353552
-4.150000 0.487161
-4.100000 0.586512
-4.050000 0.665308
-4.000000 0.730399
-3.950000 0.781788
-3.900000 0.805770
-3.850000 0.809195
-3.800000 0.785214
-3.750000 0.737252
-3.700000 0.682437
-3.650000 0.624197
-3.600000 0.555680
-3.550000 0.483736
-3.500000 0.415218
-3.450000 0.356977
-3.400000 0.326145
-3.350000 0.298737
-3.300000 0.267904
-3.250000 0.202813
-3.200000 0.117165
-3.150000 0.117165
-3.100000 0.195961
-3.050000 0.195961
-3.000000 0.117165
-2.950000 0.175406
-2.900000 0.302164
-2.850000 0.267905
-2.800000 0.178832
-2.750000 0.182257
-2.700000 0.151424
-2.650000 0.117165
-2.600000 0.257627
-2.550000 0.360404
-2.500000 0.240497
-2.450000 0.223368
-2.400000 0.422070
-2.350000 0.452902
-2.300000 0.336423
-2.250000 0.422069
-2.200000 0.524846
-2.150000 0.370681
-2.100000 0.285034
-2.050000 0.418644
-2.000000 0.387810
-1.950000 0.117165
-1.900000 -0.037000
-1.850000 -0.026722
-1.800000 0.010963
-1.750000 0.072629
-1.700000 0.082906
-1.650000 -0.002740
-1.600000 0.038369
-1.550000 0.206238
-1.500000 0.216516
-1.450000 0.161702
-1.400000 0.336423
-1.350000 0.548828
-1.300000 0.541975
-1.250000 0.511143
-1.200000 0.545402
-1.150000 0.470032
-1.100000 0.442625
-1.050000 0.579661
-1.000000 0.517994
-0.950000 0.178832
-0.900000 0.048647
-0.850000 0.165128
-0.800000 0.120591
-0.750000 -0.016445
-0.700000 0.041795
-0.650000 0.106887
-0.600000 0.031518
-0.550000 0.055500
-0.500000 0.192535
-0.450000 0.230219
-0.400000 0.261053
-0.350000 0.401514
-0.300000 0.511142
-0.250000 0.521420
-0.200000 0.555679
-0.150000 0.600216
-0.100000 0.569383
-0.050000 0.490588
0.000000 0.422069
0.050000 0.380958
0.100000 0.343274
0.150000 0.254201
0.200000 0.113740
0.250000 0.072629
0.300000 0.151424
0.350000 0.124017
0.400000 0.017814
0.450000 0.100036
0.500000 0.336422
0.550000 0.466606
0.600000 0.521420
0.650000 0.682437
0.700000 0.829750
0.750000 0.826325
0.800000 0.843454
0.850000 0.983916
0.900000 1.141506
0.950000 1.312801
1.000000 1.627983
1.050000 2.104182
1.100000 2.737971
1.150000 3.645832
1.200000 4.913411
1.250000 6.482469
1.300000 8.353006
1.350000 10.569554
1.400000 13.063605
1.450000 15.677558
1.500000 18.356606
1.550000 21.141850
1.600000 23.992191
1.650000 26.763741
1.700000 29.391399
1.750000 31.936831
1.800000 34.365789
1.850000 36.568640
1.900000 38.538527
1.950000 40.354237
2.000000 42.015797
2.050000 43.427267
2.100000 44.537257
2.150000 45.332067
2.200000 45.845947
2.250000 46.068627
2.300000 45.914467
2.350000 45.318357
2.400000 44.362537
2.450000 43.132647
2.500000 41.601277
2.550000 39.785547
2.600000 37.781397
2.650000 35.616237
2.700000 33.307187
2.750000 30.981017
2.800000 28.682237
2.850000 26.335507
2.900000 23.985347
2.950000 21.813327
3.000000 19.843445
3.050000 17.996886
3.100000 16.345607
3.150000 15.016364
3.200000 13.978321
3.250000 13.176662
3.300000 12.666199
3.350000 12.494907
3.400000 12.566855
3.450000 12.813512
3.500000 13.279435
3.550000 13.978316
3.600000 14.769698
3.650000 15.547377
3.700000 16.304499
3.750000 17.051335
3.800000 17.729665
3.850000 18.291517
3.900000 18.726604
3.950000 18.997247
4.000000 19.093174
4.050000 19.058916
4.100000 18.884191
4.150000 18.527900
4.200000 18.003737
4.250000 17.359672
4.300000 16.588848
4.350000 15.698115
4.400000 14.745716
4.450000 13.769337
4.500000 12.744996
4.550000 11.676119
4.600000 10.627796
4.650000 9.647992
4.700000 8.750409
4.750000 7.952176
4.800000 7.263573
4.850000 6.712004
4.900000 6.311174
4.950000 6.030251
5.000000 5.821272
5.050000 5.691088
5.100000 5.649978
5.150000 5.684237
5.200000 5.783588
5.250000 5.934327
5.300000 6.095343
5.350000 6.273490
5.400000 6.509876
5.450000 6.780521
5.500000 7.013482
5.550000 7.232739
5.600000 7.475977
5.650000 7.715790
5.700000 7.924769
5.750000 8.092637
5.800000 8.181711
5.850000 8.174859
5.900000 8.137175
5.950000 8.072082
6.000000 7.931621
6.050000 7.708937
6.100000 7.448570
6.150000 7.164221
6.200000 6.849040
6.250000 6.503024
6.300000 6.126177
6.350000 5.715070
6.400000 5.300537
6.450000 4.903134
6.500000 4.492027
6.550000 4.074068
6.600000 3.690369
6.650000 3.351206
6.700000 3.049727
6.750000 2.796211
6.800000 2.618065
6.850000 2.532418
6.900000 2.467326
6.950000 2.405660
7.000000 2.385104
7.050000 2.426215
7.100000 2.474178
7.150000 2.484455
7.200000 2.484456
7.250000 2.508437
7.300000 2.522140
7.350000 2.549547
7.400000 2.607787
7.450000 2.686583
7.500000 2.758526
7.550000 2.861303
7.600000 3.018894
7.650000 3.176485
7.700000 3.303243
7.750000 3.423149
7.800000 3.539630
7.850000 3.608148
7.900000 3.608148
7.950000 3.556759
8.000000 3.481389
8.050000 3.358057
8.100000 3.176485
8.150000 2.991487
8.200000 2.816767
8.250000 2.607787
8.300000 2.395382
8.350000 2.224088
8.400000 2.056220
8.450000 1.860944
8.500000 1.706779
8.550000 1.607427
8.600000 1.508077
8.650000 1.405300
8.700000 1.340208
8.750000 1.278542
8.800000 1.216876
8.850000 1.189469
8.900000 1.172339
8.950000 1.138080
9.000000 1.144932
9.050000 1.192895
9.100000 1.199747
9.150000 1.189469
9.200000 1.220302
9.250000 1.254561
9.300000 1.254561
9.350000 1.247710
9.400000 1.251135
9.450000 1.199747
9.500000 1.103821
9.550000 1.025027
9.600000 0.973638
9.650000 0.905120
9.700000 0.826325
9.750000 0.788640
9.800000 0.802344
9.850000 0.829750
9.900000 0.867435
9.950000 0.946231
10.000000 1.069563
10.050000 1.172340
10.100000 1.223727
10.150000 1.271691
10.200000 1.319653
10.250000 1.285394
10.300000 1.162061
10.350000 1.025026
10.400000 0.901695
10.450000 0.768084
10.500000 0.617345
10.550000 0.511143
10.600000 0.446050
10.650000 0.380959
10.700000 0.305589
10.750000 0.261053
10.800000 0.250775
10.850000 0.254201
10.900000 0.250775
10.950000 0.254201
11.000000 0.267904
11.050000 0.274756
11.100000 0.278182
11.150000 0.298738
11.200000 0.336422
11.250000 0.367255
11.300000 0.404940
11.350000 0.463180
11.400000 0.497439
11.450000 0.487161
11.500000 0.470032
11.550000 0.442625
11.600000 0.374107
11.650000 0.302163
11.700000 0.240497
11.750000 0.141147
11.800000 0.017814
11.850000 -0.037000
11.900000 -0.026722
11.950000 -0.030148
12.000000 -0.019870
12.050000 0.052074
12.100000 0.117165
12.150000 0.144573
12.200000 0.209664
12.250000 0.291886
12.300000 0.305589
12.350000 0.285034
12.400000 0.285034
12.450000 0.243923
12.500000 0.144572
12.550000 0.048647
12.600000 -0.043852
12.650000 -0.163758
12.700000 -0.283664
12.750000 -0.355608
12.800000 -0.369311
12.850000 -0.345329
12.900000 -0.321348
12.950000 -0.287090
13.000000 -0.191164
13.050000 -0.047277
13.100000 0.093184
13.150000 0.247349
13.200000 0.418644
13.250000 0.535123
13.300000 0.576234
13.350000 0.603641
13.400000 0.631049
13.450000 0.624197
13.500000 0.596790
13.550000 0.586512
13.600000 0.569383
13.650000 0.524846
13.700000 0.480309
13.750000 0.452902
13.800000 0.415218
13.850000 0.356977
13.900000 0.291886
13.950000 0.223368
14.000000 0.151424
14.050000 0.072628
14.100000 -0.050704
14.150000 -0.194591
14.200000 -0.311071
14.250000 -0.393293
14.300000 -0.478940
14.350000 -0.520051
14.400000 -0.516624
14.450000 -0.506346
14.500000 -0.506347
14.550000 -0.465236
14.600000 -0.403570
14.650000 -0.386441
14.700000 -0.400144
14.750000 -0.424126
14.800000 -0.448107
14.850000 -0.472088
14.900000 -0.482366
14.950000 -0.475513
15.000000 -0.434403
15.050000 -0.345329
15.100000 -0.239127
15.150000 -0.102092
15.200000 0.069203
15.250000 0.243923
15.300000 0.384385
15.350000 0.528273
15.400000 0.655030
15.450000 0.675585
15.500000 0.610493
15.550000 0.524846
15.600000 0.380959
15.650000 0.137721
15.700000 -0.112369
15.750000 -0.304219
15.800000 -0.502921
15.850000 -0.718752
15.900000 -0.883195
15.950000 -0.975693
16.000000 -1.013379
16.050000 -0.989397
16.100000 -0.910601
16.150000 -0.804399
16.200000 -0.674215
16.250000 -0.561161
16.300000 -0.496069
16.350000 -0.441255
16.400000 -0.383015
16.450000 -0.379589
16.500000 -0.441255
16.550000 -0.492643
16.600000 -0.554309
16.650000 -0.646808
16.700000 -0.735881
16.750000 -0.794122
16.800000 -0.838658
16.850000 -0.866065
16.900000 -0.859214
16.950000 -0.838658
17.000000 -0.787270
17.050000 -0.725603
17.100000 -0.677642
17.150000 -0.622827
17.200000 -0.544031
17.250000 -0.513199
17.300000 -0.523476
17.350000 -0.530328
17.400000 -0.554309
17.450000 -0.622827
17.500000 -0.687919
17.550000 -0.715326
17.600000 -0.729029
17.650000 -0.735882
17.700000 -0.708474
17.750000 -0.657086
17.800000 -0.588568
17.850000 -0.506347
17.900000 -0.427552
17.950000 -0.348755
18.000000 -0.273386
18.050000 -0.235702
18.100000 -0.242554
18.150000 -0.273386
18.200000 -0.341904
18.250000 -0.454959
18.300000 -0.585142
18.350000 -0.705048
18.400000 -0.852362
18.450000 -1.009952
18.500000 -1.119581
18.550000 -1.164118
18.600000 -1.188099
18.650000 -1.174395
18.700000 -1.088748
18.750000 -0.944861
18.800000 -0.790695
18.850000 -0.650234
18.900000 -0.540605
18.950000 -0.444680
19.000000 -0.341904
19.050000 -0.290516
19.100000 -0.328200
19.150000 -0.393292
19.200000 -0.448107
19.250000 -0.544031
19.300000 -0.657086
19.350000 -0.725604
19.400000 -0.759863
19.450000 -0.794121
19.500000 -0.800973
19.550000 -0.773566
19.600000 -0.729029
19.650000 -0.667364
19.700000 -0.595420
19.750000 -0.540606
19.800000 -0.492643
19.850000 -0.448106
19.900000 -0.441254
19.950000 -0.472088
20.000000 -0.523476
20.050000 -0.591994
20.100000 -0.674215
20.150000 -0.735881
20.200000 -0.780418
20.250000 -0.835232
20.300000 -0.872917
20.350000 -0.890046
20.400000 -0.910601
20.450000 -0.927731
20.500000 -0.934583
20.550000 -0.920879
20.600000 -0.886621
20.650000 -0.848936
20.700000 -0.821529
20.750000 -0.800974
20.800000 -0.756437
20.850000 -0.708475
20.900000 -0.670790
20.950000 -0.643383
21.000000 -0.626253
21.050000 -0.643382
21.100000 -0.677641
21.150000 -0.722178
21.200000 -0.763289
21.250000 -0.831806
21.300000 -0.944861
21.350000 -1.051063
21.400000 -1.123007
21.450000 -1.205228
21.500000 -1.321708
21.550000 -1.397078
21.600000 -1.407355
21.650000 -1.410782
21.700000 -1.397078
21.750000 -1.349116
21.800000 -1.273746
21.850000 -1.181247
21.900000 -1.057915
21.950000 -0.924305
22.000000 -0.787269
22.050000 -0.657086
22.100000 -0.554309
22.150000 -0.478939
22.200000 -0.400144
22.250000 -0.314497
22.300000 -0.276812
22.350000 -0.293941
22.400000 -0.307645
22.450000 -0.304219
22.500000 -0.331627
22.550000 -0.365885
22.600000 -0.376163
22.650000 -0.386440
22.700000 -0.424125
22.750000 -0.448107
22.800000 -0.444681
22.850000 -0.482365
22.900000 -0.574865
22.950000 -0.670790
23.000000 -0.763288
23.050000 -0.900324
23.100000 -1.061341
23.150000 -1.194951
23.200000 -1.287450
23.250000 -1.366245
23.300000 -1.438189
23.350000 -1.441614
23.400000 -1.390227
23.450000 -1.311431
23.500000 -1.181247
23.550000 -1.006526
23.600000 -0.845509
23.650000 -0.722178
23.700000 -0.612550
23.750000 -0.530327
23.800000 -0.506346
23.850000 -0.526902
23.900000 -0.557735
23.950000 -0.622827
24.000000 -0.705048
24.050000 -0.749585
24.100000 -0.749585
24.150000 -0.718752
24.200000 -0.657085
24.250000 -0.557735
24.300000 -0.451533
24.350000 -0.341904
24.400000 -0.239127
24.450000 -0.146628
24.500000 -0.088388
24.550000 -0.060981
24.600000 -0.064407
24.650000 -0.102092
24.700000 -0.191165
24.750000 -0.314496
24.800000 -0.434403
24.850000 -0.540606
24.900000 -0.677641
24.950000 -0.824954
25.000000 -0.924305
25.050000 -1.003101
25.100000 -1.129859
25.150000 -1.246339
25.200000 -1.308005
25.250000 -1.355968
25.300000 -1.407356
25.350000 -1.417633
25.400000 -1.383375
25.450000 -1.342264
25.500000 -1.290876
25.550000 -1.205228
25.600000 -1.088748
25.650000 -0.975693
25.700000 -0.886621
25.750000 -0.814677
25.800000 -0.715326
25.850000 -0.605697
25.900000 -0.533754
25.950000 -0.489217
26.000000 -0.434403
26.050000 -0.393293
26.100000 -0.393292
26.150000 -0.403570
26.200000 -0.413848
26.250000 -0.437829
26.300000 -0.492643
26.350000 -0.564587
26.400000 -0.657086
26.450000 -0.766714
26.500000 -0.883194
26.550000 -0.985971
26.600000 -1.081896
26.650000 -1.184673
26.700000 -1.280598
26.750000 -1.349116
26.800000 -1.390227
26.850000 -1.455318
26.900000 -1.537540
26.950000 -1.558095
27.000000 -1.510133
27.050000 -1.475874
27.100000 -1.448466
27.150000 -1.373097
27.200000 -1.260042
27.250000 -1.136711
27.300000 -1.023656
27.350000 -0.924306
27.400000 -0.845510
27.450000 -0.756437
27.500000 -0.667364
27.550000 -0.598845
27.600000 -0.561160
27.650000 -0.550884
27.700000 -0.574864
27.750000 -0.609124
27.800000 -0.660512
27.850000 -0.753011
27.900000 -0.852361
27.950000 -0.903750
28.000000 -0.934583
28.050000 -0.965416
28.100000 -0.982546
28.150000 -0.979120
28.200000 -0.982545
28.250000 -0.965416
28.300000 -0.931157
28.350000 -0.914028
28.400000 -0.938009
28.450000 -0.975694
28.500000 -1.020231
28.550000 -1.068193
28.600000 -1.129858
28.650000 -1.188099
28.700000 -1.218932
28.750000 -1.222357
28.800000 -1.201803
28.850000 -1.184673
28.900000 -1.140136
28.950000 -1.064767
29.000000 -0.996249
29.050000 -0.955139
29.100000 -0.944861
29.150000 -0.948286
29.200000 -0.968841
29.250000 -0.999675
29.300000 -1.016805
29.350000 -1.020230
29.400000 -1.023657
29.450000 -1.037360
29.500000 -1.037359
29.550000 -0.975694
29.600000 -0.879768
29.650000 -0.821528
29.700000 -0.814677
29.750000 -0.797547
29.800000 -0.770140
29.850000 -0.787270
29.900000 -0.852361
29.950000 -0.920879
30.000000 -0.982545
30.050000 -1.057915
30.100000 -1.143562
30.150000 -1.201803
30.200000 -1.205228
30.250000 -1.174395
30.300000 -1.143562
30.350000 -1.092174
30.400000 -1.030508
30.450000 -1.009953
30.500000 -1.016805
30.550000 -1.006527
30.600000 -1.013378
30.650000 -1.068192
30.700000 -1.146988
30.750000 -1.236062
30.800000 -1.338838
30.850000 -1.414207
30.900000 -1.451893
30.950000 -1.472448
31.000000 -1.458744
31.050000 -1.379949
31.100000 -1.273746
31.150000 -1.160692
31.200000 -1.003101
31.250000 -0.842084
31.300000 -0.753011
31.350000 -0.687919
31.400000 -0.612549
31.450000 -0.595420
31.500000 -0.677641
31.550000 -0.797548
31.600000 -0.920880
31.650000 -1.068193
31.700000 -1.215506
31.750000 -1.328560
31.800000 -1.410781
31.850000 -1.462170
31.900000 -1.472448
31.950000 -1.438188
32.000000 -1.359394
32.050000 -1.246339
32.100000 -1.123007
32.150000 -0.999674
32.200000 -0.866065
32.250000 -0.746159
32.300000 -0.681067
32.350000 -0.633105
32.400000 -0.578290
32.450000 -0.578290
32.500000 -0.646808
32.550000 -0.708474
32.600000 -0.756437
32.650000 -0.852362
32.700000 -0.972268
32.750000 -1.040786
32.800000 -1.088748
32.850000 -1.157266
32.900000 -1.208654
32.950000 -1.201802
33.000000 -1.184673
33.050000 -1.167543
33.100000 -1.116155
33.150000 -1.044211
33.200000 -0.999675
33.250000 -1.006527
33.300000 -1.027082
33.350000 -1.057915
33.400000 -1.119581
33.450000 -1.201802
33.500000 -1.253191
33.550000 -1.266895
33.600000 -1.277172
33.650000 -1.263468
33.700000 -1.208655
33.750000 -1.140136
33.800000 -1.044212
33.850000 -0.931157
33.900000 -0.859214
33.950000 -0.842084
34.000000 -0.818103
34.050000 -0.828380
34.100000 -0.938009
34.150000 -1.078470
34.200000 -1.181248
34.250000 -1.318283
34.300000 -1.493003
34.350000 -1.602631
34.400000 -1.640316
34.450000 -1.636890
34.500000 -1.564947
34.550000 -1.410782
34.600000 -1.242913
34.650000 -1.061341
34.700000 -0.876343
34.750000 -0.722178
34.800000 -0.585142
34.850000 -0.448106
34.900000 -0.393292
34.950000 -0.410422
35.000000 -0.413848
35.050000 -0.454959
35.100000 -0.588568
35.150000 -0.739308
35.200000 -0.859213
35.250000 -1.003101
35.300000 -1.143562
35.350000 -1.198376
35.400000 -1.229210
35.450000 -1.263469
35.500000 -1.215506
35.550000 -1.112729
35.600000 -1.037360
35.650000 -0.955138
35.700000 -0.831806
35.750000 -0.729029
35.800000 -0.657085
35.850000 -0.588568
35.900000 -0.547457
35.950000 -0.537179
36.000000 -0.547458
36.050000 -0.588568
36.100000 -0.663937
36.150000 -0.735881
36.200000 -0.807825
36.250000 -0.907176
36.300000 -1.013378
36.350000 -1.099026
36.400000 -1.198377
36.450000 -1.321708
36.500000 -1.410782
36.550000 -1.455318
36.600000 -1.469022
36.650000 -1.465596
36.700000 -1.424485
36.750000 -1.321708
36.800000 -1.164118
36.850000 -0.968842
36.900000 -0.735882
36.950000 -0.468662
37.000000 -0.204868
37.050000 0.000685
37.100000 0.147998
37.150000 0.230219
37.200000 0.226794
37.250000 0.124017
37.300000 -0.054130
37.350000 -0.297368
37.400000 -0.585142
37.450000 -0.862639
37.500000 -1.126433
37.550000 -1.352542
37.600000 -1.472448
37.650000 -1.503281
37.700000 -1.496429
37.750000 -1.431337
37.800000 -1.287449
37.850000 -1.153840
37.900000 -1.068192
37.950000 -0.975694
38.000000 -0.900324
38.050000 -0.920880
38.100000 -1.013379
38.150000 -1.105878
38.200000 -1.222358
38.250000 -1.338838
38.300000 -1.431337
38.350000 -1.493003
38.400000 -1.523836
38.450000 -1.479299
38.500000 -1.376523
38.550000 -1.242914
38.600000 -1.085322
38.650000 -0.924305
38.700000 -0.797547
38.750000 -0.698197
38.800000 -0.636530
38.850000 -0.646808
38.900000 -0.701622
38.950000 -0.753011
39.000000 -0.818103
39.050000 -0.896898
39.100000 -0.951712
39.150000 -0.965416
39.200000 -0.938008
39.250000 -0.886621
39.300000 -0.828380
39.350000 -0.742733
39.400000 -0.622827
39.450000 -0.509773
39.500000 -0.437828
39.550000 -0.410422
39.600000 -0.430977
39.650000 -0.496069
39.700000 -0.591994
39.750000 -0.749585
39.800000 -0.924305
39.850000 -1.047638
39.900000 -1.109303
39.950000 -1.157266
40.000000 -1.181247
40.050000 -1.160692
40.100000 -1.088748
40.150000 -0.979120
40.200000 -0.862639
