time[ns] Raw_signal[mV]
-11.100000 0.067627
-11.050000 0.067628
-11.000000 0.067627
-10.950000 0.081331
-10.900000 0.115590
-10.850000 0.129294
-10.800000 0.115590
-10.750000 0.112164
-10.700000 0.115589
-10.650000 0.101886
-10.600000 0.081331
-10.550000 0.074479
-10.500000 0.043646
-10.450000 -0.021446
-10.400000 -0.076260
-10.350000 -0.127648
-10.300000 -0.220147
-10.250000 -0.305795
-10.200000 -0.336627
-10.150000 -0.350332
-10.100000 -0.381165
-10.050000 -0.408572
-10.000000 -0.384590
-9.950000 -0.346906
-9.900000 -0.305795
-9.850000 -0.230425
-9.800000 -0.137926
-9.750000 -0.062557
-9.700000 0.016239
-9.650000 0.098461
-9.600000 0.156700
-9.550000 0.190959
-9.500000 0.221792
-9.450000 0.235496
-9.400000 0.214940
-9.350000 0.197811
-9.300000 0.208089
-9.250000 0.197811
-9.200000 0.180682
-9.150000 0.170404
-9.100000 0.142997
-9.050000 0.098460
-9.000000 0.064201
-8.950000 0.043646
-8.900000 0.009387
-8.850000 -0.011168
-8.800000 -0.011168
-8.750000 -0.004316
-8.700000 0.019665
-8.650000 0.081331
-8.600000 0.153274
-8.550000 0.221792
-8.500000 0.297161
-8.450000 0.396513
-8.400000 0.482160
-8.350000 0.543826
-8.300000 0.584937
-8.250000 0.608918
-8.200000 0.581511
-8.150000 0.492438
-8.100000 0.375957
-8.050000 0.273181
-8.000000 0.177255
-7.950000 0.071053
-7.900000 -0.024872
-7.850000 -0.083112
-7.800000 -0.093390
-7.750000 -0.072834
-7.700000 -0.028298
-7.650000 0.047072
-7.600000 0.136145
-7.550000 0.232070
-7.500000 0.324569
-7.450000 0.396513
-7.400000 0.451327
-7.350000 0.499290
-7.300000 0.519844
-7.250000 0.489012
-7.200000 0.430772
-7.150000 0.358828
-7.100000 0.286884
-7.050000 0.238922
-7.000000 0.204663
-6.950000 0.163552
-6.900000 0.149849
-6.850000 0.166978
-6.800000 0.163552
-6.750000 0.139571
-6.700000 0.160127
-6.650000 0.208088
-6.600000 0.228644
-6.550000 0.228644
-6.500000 0.221793
-6.450000 0.190959
-6.400000 0.146423
-6.350000 0.105312
-6.300000 0.067627
-6.250000 0.029942
-6.200000 -0.007742
-6.150000 -0.048853
-6.100000 -0.076260
-6.050000 -0.072834
-6.000000 -0.083112
-5.950000 -0.096815
-5.900000 -0.083112
-5.850000 -0.069408
-5.800000 -0.089963
-5.750000 -0.093390
-5.700000 -0.065982
-5.650000 -0.055705
-5.600000 -0.059131
-5.550000 -0.076260
-5.500000 -0.110519
-5.450000 -0.158482
-5.400000 -0.189315
-5.350000 -0.216721
-5.300000 -0.216722
-5.250000 -0.182463
-5.200000 -0.155056
-5.150000 -0.141353
-5.100000 -0.103668
-5.050000 -0.059131
-5.000000 -0.021445
-4.950000 0.040220
-4.900000 0.136145
-4.850000 0.211514
-4.800000 0.256051
-4.750000 0.321143
-4.700000 0.355402
-4.650000 0.331421
-4.600000 0.273181
-4.550000 0.228644
-4.500000 0.194385
-4.450000 0.177256
-4.400000 0.166978
-4.350000 0.149849
-4.300000 0.142997
-4.250000 0.166978
-4.200000 0.211514
-4.150000 0.276606
-4.100000 0.365680
-4.050000 0.444475
-4.000000 0.512993
-3.950000 0.581511
-3.900000 0.650029
-3.850000 0.704843
-3.800000 0.749379
-3.750000 0.773360
-3.700000 0.752805
-3.650000 0.718546
-3.600000 0.677435
-3.550000 0.629474
-3.500000 0.574659
-3.450000 0.519845
-3.400000 0.451327
-3.350000 0.410217
-3.300000 0.399939
-3.250000 0.304013
-3.200000 0.108738
-3.150000 0.029942
-3.100000 0.091608
-3.050000 0.036794
-3.000000 -0.113945
-2.950000 -0.096815
-2.900000 0.002536
-2.850000 -0.059131
-2.800000 -0.141352
-2.750000 -0.107094
-2.700000 -0.134500
-2.650000 -0.155056
-2.600000 0.043646
-2.550000 0.218366
-2.500000 0.146423
-2.450000 0.187534
-2.400000 0.427346
-2.350000 0.468456
-2.300000 0.351976
-2.250000 0.458178
-2.200000 0.564381
-2.150000 0.413642
-2.100000 0.348550
-2.050000 0.512993
-2.000000 0.519844
-1.950000 0.280032
-1.900000 0.156701
-1.850000 0.225218
-1.800000 0.310866
-1.750000 0.375958
-1.700000 0.372532
-1.650000 0.262903
-1.600000 0.218367
-1.550000 0.269755
-1.500000 0.208089
-1.450000 0.101886
-1.400000 0.190959
-1.350000 0.338273
-1.300000 0.310865
-1.250000 0.252625
-1.200000 0.280032
-1.150000 0.256051
-1.100000 0.286884
-1.050000 0.478734
-1.000000 0.495864
-0.950000 0.225218
-0.900000 0.119015
-0.850000 0.266329
-0.800000 0.235496
-0.750000 0.060776
-0.700000 0.081330
-0.650000 0.122441
-0.600000 -0.031724
-0.550000 -0.127649
-0.500000 -0.059131
-0.450000 -0.083112
-0.400000 -0.179037
-0.350000 -0.151630
-0.300000 -0.069408
-0.250000 -0.076260
-0.200000 -0.107093
-0.150000 -0.120797
-0.100000 -0.148204
-0.050000 -0.182462
0.000000 -0.185889
0.050000 -0.155055
0.100000 -0.127648
0.150000 -0.168759
0.200000 -0.247555
0.250000 -0.189315
0.300000 -0.038576
0.350000 -0.045427
0.400000 -0.155056
0.450000 -0.076260
0.500000 0.129293
0.550000 0.214941
0.600000 0.252625
0.650000 0.362254
0.700000 0.413642
0.750000 0.369106
0.800000 0.410217
0.850000 0.564381
0.900000 0.721972
0.950000 0.944655
1.000000 1.338632
1.050000 1.886775
1.100000 2.589082
1.150000 3.579164
1.200000 4.884428
1.250000 6.463764
1.300000 8.313744
1.350000 10.472051
1.400000 12.866753
1.450000 15.347096
1.500000 17.841149
1.550000 20.390007
1.600000 22.990257
1.650000 25.539116
1.700000 27.944098
1.750000 30.266844
1.800000 32.517656
1.850000 34.556067
1.900000 36.358083
1.950000 38.040193
2.000000 39.595543
2.050000 40.893953
2.100000 41.894323
2.150000 42.641163
2.200000 43.117363
2.250000 43.264673
2.300000 43.038563
2.350000 42.445893
2.400000 41.527743
2.450000 40.349243
2.500000 38.893233
2.550000 37.200843
2.600000 35.350873
2.650000 33.346723
2.700000 31.198693
2.750000 29.026683
2.800000 26.899193
2.850000 24.734040
2.900000 22.548320
2.950000 20.516763
3.000000 18.683914
3.050000 16.964117
3.100000 15.470429
3.150000 14.322755
3.200000 13.445728
3.250000 12.781105
3.300000 12.441945
3.350000 12.421390
3.400000 12.558425
3.450000 12.842766
3.500000 13.325825
3.550000 13.932207
3.600000 14.552290
3.650000 15.151820
3.700000 15.703386
3.750000 16.172737
3.800000 16.559863
3.850000 16.871620
3.900000 17.090875
3.950000 17.203925
4.000000 17.227911
4.050000 17.186801
4.100000 17.080602
4.150000 16.902450
4.200000 16.611247
4.250000 16.220699
4.300000 15.741075
4.350000 15.138118
4.400000 14.408403
4.450000 13.623874
4.500000 12.798235
4.550000 11.869818
4.600000 10.869459
4.650000 9.889654
4.700000 8.930405
4.750000 7.984860
4.800000 7.121534
4.850000 6.402097
4.900000 5.805993
4.950000 5.309239
5.000000 4.942668
5.050000 4.719986
5.100000 4.606932
5.150000 4.593228
5.200000 4.702856
5.250000 4.928965
5.300000 5.213314
5.350000 5.521644
5.400000 5.877936
5.450000 6.282192
5.500000 6.655614
5.550000 6.977648
5.600000 7.296255
5.650000 7.594307
5.700000 7.816990
5.750000 7.967730
5.800000 8.039673
5.850000 8.001988
5.900000 7.906063
5.950000 7.796435
6.000000 7.625140
6.050000 7.395606
6.100000 7.166072
6.150000 6.926259
6.200000 6.648762
6.250000 6.357561
6.300000 6.066360
6.350000 5.737475
6.400000 5.401738
6.450000 5.096834
6.500000 4.778226
6.550000 4.439063
6.600000 4.127307
6.650000 3.846384
6.700000 3.555183
6.750000 3.274261
6.800000 3.037874
6.850000 2.832320
6.900000 2.654174
6.950000 2.503435
7.000000 2.417787
7.050000 2.386954
7.100000 2.390381
7.150000 2.407510
7.200000 2.472602
7.250000 2.565101
7.300000 2.654174
7.350000 2.770655
7.400000 2.897413
7.450000 2.962504
7.500000 2.979634
7.550000 3.000189
7.600000 2.986486
7.650000 2.893986
7.700000 2.798062
7.750000 2.726118
7.800000 2.650748
7.850000 2.575379
7.900000 2.506861
7.950000 2.438343
8.000000 2.390380
8.050000 2.393806
8.100000 2.397232
8.150000 2.342418
8.200000 2.270474
8.250000 2.208809
8.300000 2.116310
8.350000 1.989551
8.400000 1.838813
8.450000 1.664092
8.500000 1.461964
8.550000 1.276967
8.600000 1.088542
8.650000 0.900119
8.700000 0.718546
8.750000 0.564381
8.800000 0.434198
8.850000 0.338272
8.900000 0.252625
8.950000 0.156700
9.000000 0.108738
9.050000 0.122442
9.100000 0.132719
9.150000 0.119016
9.200000 0.139570
9.250000 0.197811
9.300000 0.252625
9.350000 0.314291
9.400000 0.382809
9.450000 0.406791
9.500000 0.423920
9.550000 0.502716
9.600000 0.602066
9.650000 0.656881
9.700000 0.725398
9.750000 0.821323
9.800000 0.896692
9.850000 0.951507
9.900000 1.009747
9.950000 1.037154
10.000000 1.023450
10.050000 1.009747
10.100000 0.992618
10.150000 0.961784
10.200000 0.920674
10.250000 0.872712
10.300000 0.821323
10.350000 0.776786
10.400000 0.704843
10.450000 0.581511
10.500000 0.458179
10.550000 0.355402
10.600000 0.238922
10.650000 0.108738
10.700000 -0.014594
10.750000 -0.144778
10.800000 -0.264685
10.850000 -0.319499
10.900000 -0.329776
10.950000 -0.316072
11.000000 -0.264684
11.050000 -0.192740
11.100000 -0.110519
11.150000 0.009387
11.200000 0.132719
11.250000 0.190959
11.300000 0.259477
11.350000 0.362254
11.400000 0.423920
11.450000 0.451327
11.500000 0.509567
11.550000 0.554104
11.600000 0.543826
11.650000 0.554104
11.700000 0.595214
11.750000 0.605492
11.800000 0.588362
11.850000 0.584937
11.900000 0.574659
11.950000 0.526697
12.000000 0.471882
12.050000 0.410216
12.100000 0.334847
12.150000 0.249200
12.200000 0.156700
12.250000 0.067627
12.300000 0.005961
12.350000 -0.028297
12.400000 -0.072835
12.450000 -0.117371
12.500000 -0.158482
12.550000 -0.203018
12.600000 -0.237277
12.650000 -0.230425
12.700000 -0.213296
12.750000 -0.196166
12.800000 -0.155056
12.850000 -0.072835
12.900000 -0.004316
12.950000 0.043646
13.000000 0.098460
13.050000 0.166978
13.100000 0.214941
13.150000 0.249199
13.200000 0.286884
13.250000 0.297162
13.300000 0.269755
13.350000 0.235496
13.400000 0.221792
13.450000 0.232070
13.500000 0.259477
13.550000 0.283459
13.600000 0.283459
13.650000 0.269754
13.700000 0.256051
13.750000 0.228644
13.800000 0.187534
13.850000 0.129293
13.900000 0.036794
13.950000 -0.089963
14.000000 -0.199592
14.050000 -0.298943
14.100000 -0.425701
14.150000 -0.531904
14.200000 -0.576440
14.250000 -0.627829
14.300000 -0.706624
14.350000 -0.734031
14.400000 -0.713476
14.450000 -0.747735
14.500000 -0.823104
14.550000 -0.867641
14.600000 -0.898474
14.650000 -0.932733
14.700000 -0.936159
14.750000 -0.919030
14.800000 -0.898474
14.850000 -0.819679
14.900000 -0.686069
14.950000 -0.569588
15.000000 -0.473663
15.050000 -0.343480
15.100000 -0.216722
15.150000 -0.155056
15.200000 -0.100242
15.250000 -0.048853
15.300000 -0.065983
15.350000 -0.144778
15.400000 -0.223573
15.450000 -0.305795
15.500000 -0.408572
15.550000 -0.480516
15.600000 -0.504497
15.650000 -0.528477
15.700000 -0.549033
15.750000 -0.562736
15.800000 -0.607273
15.850000 -0.679217
15.900000 -0.751161
15.950000 -0.840234
16.000000 -0.960140
16.050000 -1.097175
16.100000 -1.227359
16.150000 -1.357543
16.200000 -1.432913
16.250000 -1.439765
16.300000 -1.402080
16.350000 -1.340414
16.400000 -1.234211
16.450000 -1.083472
16.500000 -0.915604
16.550000 -0.761438
16.600000 -0.627828
16.650000 -0.518200
16.700000 -0.422275
16.750000 -0.360609
16.800000 -0.346905
16.850000 -0.343479
16.900000 -0.340054
16.950000 -0.340054
17.000000 -0.353757
17.050000 -0.343480
17.100000 -0.340054
17.150000 -0.340054
17.200000 -0.316073
17.250000 -0.274962
17.300000 -0.271535
17.350000 -0.288666
17.400000 -0.281814
17.450000 -0.250980
17.500000 -0.247555
17.550000 -0.285240
17.600000 -0.346906
17.650000 -0.411997
17.700000 -0.466812
17.750000 -0.531903
17.800000 -0.627828
17.850000 -0.764864
17.900000 -0.912177
17.950000 -1.056065
18.000000 -1.189674
18.050000 -1.309581
18.100000 -1.381524
18.150000 -1.374673
18.200000 -1.302729
18.250000 -1.199952
18.300000 -1.062916
18.350000 -0.912177
18.400000 -0.768290
18.450000 -0.655236
18.500000 -0.579866
18.550000 -0.559311
18.600000 -0.593569
18.650000 -0.648384
18.700000 -0.723753
18.750000 -0.833381
18.800000 -0.949863
18.850000 -1.028657
18.900000 -1.086898
18.950000 -1.131434
19.000000 -1.128009
19.050000 -1.049213
19.100000 -0.953288
19.150000 -0.840234
19.200000 -0.682642
19.250000 -0.535329
19.300000 -0.442830
19.350000 -0.364035
19.400000 -0.305795
19.450000 -0.333202
19.500000 -0.442831
19.550000 -0.576440
19.600000 -0.723754
19.650000 -0.881344
19.700000 -1.028658
19.750000 -1.158842
19.800000 -1.268470
19.850000 -1.316433
19.900000 -1.302729
19.950000 -1.247915
20.000000 -1.138286
20.050000 -0.977269
20.100000 -0.812826
20.150000 -0.651809
20.200000 -0.480515
20.250000 -0.329776
20.300000 -0.261259
20.350000 -0.257833
20.400000 -0.271535
20.450000 -0.326350
20.500000 -0.435978
20.550000 -0.583292
20.600000 -0.720327
20.650000 -0.847086
20.700000 -0.966992
20.750000 -1.073194
20.800000 -1.138286
20.850000 -1.182823
20.900000 -1.230785
20.950000 -1.265044
21.000000 -1.271896
21.050000 -1.275322
21.100000 -1.278748
21.150000 -1.285600
21.200000 -1.292452
21.250000 -1.299303
21.300000 -1.299303
21.350000 -1.271895
21.400000 -1.217082
21.450000 -1.158841
21.500000 -1.093749
21.550000 -1.004676
21.600000 -0.905325
21.650000 -0.816252
21.700000 -0.751160
21.750000 -0.703198
21.800000 -0.692921
21.850000 -0.706624
21.900000 -0.740883
21.950000 -0.812826
22.000000 -0.922455
22.050000 -1.032084
22.100000 -1.128009
22.150000 -1.213656
22.200000 -1.265044
22.250000 -1.254767
22.300000 -1.206804
22.350000 -1.134860
22.400000 -1.021806
22.450000 -0.901899
22.500000 -0.802549
22.550000 -0.713476
22.600000 -0.627828
22.650000 -0.583292
22.700000 -0.596996
22.750000 -0.624402
22.800000 -0.658661
22.850000 -0.727179
22.900000 -0.805975
22.950000 -0.867641
23.000000 -0.922455
23.050000 -0.960140
23.100000 -0.980695
23.150000 -1.011528
23.200000 -1.062916
23.250000 -1.097176
23.300000 -1.117731
23.350000 -1.169119
23.400000 -1.217082
23.450000 -1.237637
23.500000 -1.261618
23.550000 -1.302728
23.600000 -1.295877
23.650000 -1.234212
23.700000 -1.158842
23.750000 -1.069768
23.800000 -0.925881
23.850000 -0.758013
23.900000 -0.614125
23.950000 -0.480515
24.000000 -0.353757
24.050000 -0.261259
24.100000 -0.209870
24.150000 -0.179037
24.200000 -0.172185
24.250000 -0.192741
24.300000 -0.209870
24.350000 -0.220148
24.400000 -0.261258
24.450000 -0.322924
24.500000 -0.357183
24.550000 -0.391442
24.600000 -0.456534
24.650000 -0.528478
24.700000 -0.617550
24.750000 -0.754586
24.800000 -0.908752
24.850000 -1.028657
24.900000 -1.141712
24.950000 -1.299303
25.000000 -1.446616
25.050000 -1.542541
25.100000 -1.614485
25.150000 -1.659021
25.200000 -1.635041
25.250000 -1.573374
25.300000 -1.508282
25.350000 -1.432912
25.400000 -1.326710
25.450000 -1.217081
25.500000 -1.131434
25.550000 -1.042361
25.600000 -0.943011
25.650000 -0.857363
25.700000 -0.809401
25.750000 -0.768290
25.800000 -0.699772
25.850000 -0.634680
25.900000 -0.576441
25.950000 -0.501070
26.000000 -0.425701
26.050000 -0.388016
26.100000 -0.374312
26.150000 -0.367461
26.200000 -0.384590
26.250000 -0.435979
26.300000 -0.483941
26.350000 -0.535330
26.400000 -0.607274
26.450000 -0.672365
26.500000 -0.710050
26.550000 -0.751161
26.600000 -0.799123
26.650000 -0.802549
26.700000 -0.788846
26.750000 -0.816252
26.800000 -0.864215
26.850000 -0.888197
26.900000 -0.936158
26.950000 -1.025232
27.000000 -1.097175
27.050000 -1.134860
27.100000 -1.179396
27.150000 -1.217081
27.200000 -1.189674
27.250000 -1.110879
27.300000 -1.038936
27.350000 -0.960139
27.400000 -0.850511
27.450000 -0.744309
27.500000 -0.672365
27.550000 -0.617551
27.600000 -0.566162
27.650000 -0.545607
27.700000 -0.552459
27.750000 -0.569588
27.800000 -0.603847
27.850000 -0.655236
27.900000 -0.692920
27.950000 -0.723754
28.000000 -0.758013
28.050000 -0.788846
28.100000 -0.802549
28.150000 -0.809401
28.200000 -0.809401
28.250000 -0.792271
28.300000 -0.778568
28.350000 -0.785420
28.400000 -0.795697
28.450000 -0.771716
28.500000 -0.734031
28.550000 -0.710050
28.600000 -0.689495
28.650000 -0.638107
28.700000 -0.590143
28.750000 -0.573014
28.800000 -0.549033
28.850000 -0.507922
28.900000 -0.477089
28.950000 -0.463386
29.000000 -0.446256
29.050000 -0.439405
29.100000 -0.456534
29.150000 -0.494219
29.200000 -0.538755
29.250000 -0.583292
29.300000 -0.620977
29.350000 -0.665513
29.400000 -0.713476
29.450000 -0.740883
29.500000 -0.747735
29.550000 -0.730605
29.600000 -0.727179
29.650000 -0.730605
29.700000 -0.716902
29.750000 -0.706624
29.800000 -0.730606
29.850000 -0.771716
29.900000 -0.805975
29.950000 -0.853937
30.000000 -0.946436
30.050000 -1.038936
30.100000 -1.128009
30.150000 -1.244488
30.200000 -1.354117
30.250000 -1.405506
30.300000 -1.432912
30.350000 -1.446616
30.400000 -1.426061
30.450000 -1.381524
30.500000 -1.357543
30.550000 -1.313006
30.600000 -1.234211
30.650000 -1.179397
30.700000 -1.151989
30.750000 -1.128008
30.800000 -1.114305
30.850000 -1.110879
30.900000 -1.114305
30.950000 -1.128008
31.000000 -1.138286
31.050000 -1.145138
31.100000 -1.165693
31.150000 -1.210230
31.200000 -1.237637
31.250000 -1.244488
31.300000 -1.237637
31.350000 -1.223933
31.400000 -1.189675
31.450000 -1.134860
31.500000 -1.066343
31.550000 -1.035510
31.600000 -1.018380
31.650000 -0.973844
31.700000 -0.936159
31.750000 -0.953288
31.800000 -0.987547
31.850000 -1.008103
31.900000 -1.014954
31.950000 -1.025232
32.000000 -1.035509
32.050000 -1.042361
32.100000 -1.052639
32.150000 -1.052639
32.200000 -1.062917
32.250000 -1.066342
32.300000 -1.049213
32.350000 -1.028658
32.400000 -1.018380
32.450000 -0.980696
32.500000 -0.922455
32.550000 -0.884770
32.600000 -0.884770
32.650000 -0.857363
32.700000 -0.805975
32.750000 -0.785420
32.800000 -0.781993
32.850000 -0.768290
32.900000 -0.751160
32.950000 -0.758012
33.000000 -0.785419
33.050000 -0.823105
33.100000 -0.860789
33.150000 -0.905325
33.200000 -0.960140
33.250000 -0.994399
33.300000 -1.011528
33.350000 -1.035509
33.400000 -1.066342
33.450000 -1.062917
33.500000 -1.042361
33.550000 -1.028657
33.600000 -0.973843
33.650000 -0.867641
33.700000 -0.795697
33.750000 -0.778568
33.800000 -0.744308
33.850000 -0.710050
33.900000 -0.737457
33.950000 -0.788845
34.000000 -0.829956
34.050000 -0.901900
34.100000 -0.990973
34.150000 -1.056065
34.200000 -1.104027
34.250000 -1.148564
34.300000 -1.151989
34.350000 -1.158841
34.400000 -1.196526
34.450000 -1.213655
34.500000 -1.217081
34.550000 -1.254767
34.600000 -1.306155
34.650000 -1.306155
34.700000 -1.309580
34.750000 -1.354118
34.800000 -1.381525
34.850000 -1.378098
34.900000 -1.374673
34.950000 -1.343840
35.000000 -1.285600
35.050000 -1.223934
35.100000 -1.145138
35.150000 -1.042362
35.200000 -0.960140
35.250000 -0.919029
35.300000 -0.888196
35.350000 -0.860789
35.400000 -0.833382
35.450000 -0.816252
35.500000 -0.819678
35.550000 -0.816253
35.600000 -0.781994
35.650000 -0.775142
35.700000 -0.819678
35.750000 -0.853938
35.800000 -0.864215
35.850000 -0.898473
35.900000 -0.936159
35.950000 -0.949862
36.000000 -0.960140
36.050000 -0.984121
36.100000 -0.970418
36.150000 -0.932733
36.200000 -0.929307
36.250000 -0.946436
36.300000 -0.949862
36.350000 -0.963566
36.400000 -0.997825
36.450000 -1.035510
36.500000 -1.080046
36.550000 -1.138286
36.600000 -1.206804
36.650000 -1.278748
36.700000 -1.313006
36.750000 -1.302729
36.800000 -1.271896
36.850000 -1.220508
36.900000 -1.131434
36.950000 -1.032084
37.000000 -0.966991
37.050000 -0.922455
37.100000 -0.898474
37.150000 -0.932733
37.200000 -0.997825
37.250000 -1.069768
37.300000 -1.169119
37.350000 -1.309581
37.400000 -1.467172
37.450000 -1.600781
37.500000 -1.700132
37.550000 -1.765224
37.600000 -1.799483
37.650000 -1.785779
37.700000 -1.724113
37.750000 -1.631614
37.800000 -1.539115
37.850000 -1.463746
37.900000 -1.384950
37.950000 -1.302729
38.000000 -1.251340
38.050000 -1.241063
38.100000 -1.258193
38.150000 -1.282173
38.200000 -1.295877
38.250000 -1.306155
38.300000 -1.340414
38.350000 -1.354117
38.400000 -1.309581
38.450000 -1.237636
38.500000 -1.182823
38.550000 -1.124583
38.600000 -1.045787
38.650000 -0.984121
38.700000 -0.929307
38.750000 -0.881345
38.800000 -0.874493
38.850000 -0.901899
38.900000 -0.919030
38.950000 -0.956714
39.000000 -1.045787
39.050000 -1.128008
39.100000 -1.186249
39.150000 -1.234211
39.200000 -1.261618
39.250000 -1.268470
39.300000 -1.285599
39.350000 -1.285600
39.400000 -1.258192
39.450000 -1.271896
39.500000 -1.330136
39.550000 -1.354118
39.600000 -1.367821
39.650000 -1.426060
39.700000 -1.467172
39.750000 -1.470597
39.800000 -1.491153
39.850000 -1.508282
39.900000 -1.487727
39.950000 -1.477449
40.000000 -1.474023
40.050000 -1.422635
