fit_time[ns] Functional_fit[mV] Thermal_fit[mV]
3.550000 39.447536 38.091406
3.600000 39.122903 37.398254
3.650000 38.763191 36.717636
3.700000 38.360108 36.049309
3.750000 37.906879 35.393035
3.800000 37.398403 34.748583
3.850000 36.831370 34.115723
3.900000 36.204327 33.494235
3.950000 35.517701 32.883898
4.000000 34.773765 32.284500
4.050000 33.976559 31.695832
4.100000 33.131774 31.117689
4.150000 32.246578 30.549871
4.200000 31.329417 29.992181
4.250000 30.389781 29.444428
4.300000 29.437943 28.906423
4.350000 28.484678 28.377981
4.400000 27.540978 27.858923
4.450000 26.617754 27.349072
4.500000 25.725549 26.848254
4.550000 24.874262 26.356301
4.600000 24.072886 25.873045
4.650000 23.329279 25.398324
4.700000 22.649960 24.931978
4.750000 22.039943 24.473852
4.800000 21.502615 24.023792
4.850000 21.039654 23.581649
4.900000 20.650993 23.147274
4.950000 20.334828 22.720525
5.000000 20.087678 22.301260
5.050000 19.904480 21.889341
5.100000 19.778730 21.484631
5.150000 19.702658 21.087000
5.200000 19.667440 20.696315
5.250000 19.663427 20.312449
5.300000 19.680405 19.935278
5.350000 19.707857 19.564678
5.400000 19.735241 19.200529
5.450000 19.752259 18.842714
5.500000 19.749124 18.491117
5.550000 19.716805 18.145624
5.600000 19.647261 17.806124
5.650000 19.533634 17.472508
5.700000 19.370420 17.144670
5.750000 19.153603 16.822504
5.800000 18.880743 16.505908
5.850000 18.551028 16.194782
5.900000 18.165278 15.889025
5.950000 17.725916 15.588543
6.000000 17.236884 15.293238
6.050000 16.703531 15.003018
6.100000 16.132461 14.717792
6.150000 15.531347 14.437470
6.200000 14.908723 14.161964
6.250000 14.273752 13.891187
6.300000 13.635978 13.625056
6.350000 13.005077 13.363486
6.400000 12.390597 13.106397
6.450000 11.801706 12.853708
6.500000 11.246959 12.605341
6.550000 10.734071 12.361219
6.600000 10.269724 12.121266
6.650000 9.859393 11.885409
6.700000 9.507213 11.653575
6.750000 9.215879 11.425692
6.800000 8.986578 11.201690
6.850000 8.818976 10.981501
6.900000 8.711226 10.765058
6.950000 8.660032 10.552293
7.000000 8.660741 10.343143
7.050000 8.707471 10.137544
7.100000 8.793274 9.935432
7.150000 8.910319 9.736747
7.200000 9.050108 9.541428
7.250000 9.203694 9.349416
7.300000 9.361921 9.160654
7.350000 9.515660 8.975084
7.400000 9.656048 8.792650
7.450000 9.774715 8.613298
7.500000 9.863997 8.436973
7.550000 9.917132 8.263623
7.600000 9.928425 8.093196
7.650000 9.893394 7.925641
7.700000 9.808870 7.760907
7.750000 9.673075 7.598946
7.800000 9.485656 7.439709
7.850000 9.247680 7.283150
7.900000 8.961599 7.129220
7.950000 8.631174 6.977876
8.000000 8.261363 6.829072
8.050000 7.858187 6.682764
8.100000 7.428561 6.538909
8.150000 6.980109 6.397464
8.200000 6.520954 6.258388
8.250000 6.059506 6.121640
8.300000 5.604236 5.987179
8.350000 5.163456 5.854967
8.400000 4.745100 5.724964
8.450000 4.356519 5.597133
8.500000 4.004292 5.471436
8.550000 3.694059 5.347836
8.600000 3.430381 5.226297
8.650000 3.216621 5.106784
8.700000 3.054874 4.989263
8.750000 2.945909 4.873699
8.800000 2.889167 4.760058
8.850000 2.882776 4.648307
8.900000 2.923615 4.538415
8.950000 3.007399 4.430349
9.000000 3.128798 4.324079
9.050000 3.281587 4.219573
9.100000 3.458809 4.116802
9.150000 3.652963 4.015735
9.200000 3.856205 3.916344
9.250000 4.060551 3.818601
9.300000 4.258087 3.722477
9.350000 4.441177 3.627944
9.400000 4.602654 3.534977
9.450000 4.736009 3.443547
9.500000 4.835553 3.353629
9.550000 4.896559 3.265198
9.600000 4.915379 3.178227
9.650000 4.889531 3.092693
9.700000 4.817752 3.008571
9.750000 4.700028 2.925838
9.800000 4.537580 2.844468
9.850000 4.332824 2.764441
9.900000 4.089299 2.685732
9.950000 3.811567 2.608320
10.000000 3.505087 2.532182
10.050000 3.176061 2.457298
10.100000 2.831271 2.383646
10.150000 2.477897 2.311205
10.200000 2.123323 2.239955
10.250000 1.774945 2.169876
10.300000 1.439975 2.100948
10.350000 1.125258 2.033152
10.400000 0.837087 1.966469
10.450000 0.581052 1.900880
10.500000 0.361891 1.836367
10.550000 0.183374 1.772911
10.600000 0.048212 1.710496
10.650000 -0.042008 1.649103
10.700000 -0.086858 1.588716
10.750000 -0.087070 1.529317
10.800000 -0.044511 1.470890
10.850000 0.037874 1.413419
10.900000 0.156144 1.356888
10.950000 0.305475 1.301281
11.000000 0.480289 1.246582
11.050000 0.674405 1.192777
11.100000 0.881206 1.139851
11.150000 1.093810 1.087789
11.200000 1.305259 1.036576
11.250000 1.508691 0.986199
11.300000 1.697527 0.936643
11.350000 1.865635 0.887895
11.400000 2.007489 0.839941
11.450000 2.118307 0.792768
11.500000 2.194173 0.746364
11.550000 2.232131 0.700715
11.600000 2.230254 0.655809
11.650000 2.187690 0.611634
11.700000 2.104674 0.568177
11.750000 1.982515 0.525426
11.800000 1.823554 0.483371
11.850000 1.631092 0.441998
11.900000 1.409305 0.401298
11.950000 1.163119 0.361258
12.000000 0.898083 0.321869
12.050000 0.620213 0.283118
12.100000 0.335839 0.244996
12.150000 0.051431 0.207492
12.200000 -0.226568 0.170597
12.250000 -0.491914 0.134299
12.300000 -0.738718 0.098589
12.350000 -0.961602 0.063458
12.400000 -1.155837 0.028895
12.450000 -1.317457 -0.005108
12.500000 -1.443363 -0.038560
12.550000 -1.531396 -0.071472
12.600000 -1.580385 -0.103851
12.650000 -1.590174 -0.135707
12.700000 -1.561619 -0.167048
12.750000 -1.496556 -0.197882
12.800000 -1.397750 -0.228219
12.850000 -1.268813 -0.258065
12.900000 -1.114108 -0.287430
12.950000 -0.938626 -0.316321
13.000000 -0.747853 -0.344745
13.050000 -0.547625 -0.372711
13.100000 -0.343973 -0.400226
13.150000 -0.142961 -0.427297
13.200000 0.049469 -0.453932
13.250000 0.227651 -0.480138
13.300000 0.386344 -0.505922
13.350000 0.520862 -0.531291
13.400000 0.627194 -0.556251
13.450000 0.702105 -0.580809
13.500000 0.743212 -0.604972
13.550000 0.749044 -0.628746
13.600000 0.719071 -0.652138
13.650000 0.653710 -0.675154
13.700000 0.554311 -0.697800
13.750000 0.423113 -0.720082
13.800000 0.263180 -0.742006
13.850000 0.078311 -0.763578
13.900000 -0.127056 -0.784803
13.950000 -0.347974 -0.805688
14.000000 -0.579113 -0.826237
14.050000 -0.814904 -0.846457
14.100000 -1.049690 -0.866352
14.150000 -1.277867 -0.885929
14.200000 -1.494038 -0.905191
14.250000 -1.693147 -0.924144
14.300000 -1.870611 -0.942794
14.350000 -2.022436 -0.961145
14.400000 -2.145320 -0.979202
14.450000 -2.236728 -0.996970
14.500000 -2.294962 -1.014453
14.550000 -2.319189 -1.031657
14.600000 -2.309469 -1.048585
14.650000 -2.266735 -1.065242
14.700000 -2.192772 -1.081633
14.750000 -2.090161 -1.097762
14.800000 -1.962204 -1.113632
14.850000 -1.812838 -1.129250
14.900000 -1.646523 -1.144617
14.950000 -1.468123 -1.159739
15.000000 -1.282781 -1.174620
15.050000 -1.095774 -1.189262
15.100000 -0.912384 -1.203671
15.150000 -0.737752 -1.217850
15.200000 -0.576751 -1.231803
15.250000 -0.433856 -1.245533
15.300000 -0.313033 -1.259044
15.350000 -0.217639 -1.272339
15.400000 -0.150335 -1.285423
15.450000 -0.113027 -1.298298
15.500000 -0.106819 -1.310967
15.550000 -0.131986 -1.323435
15.600000 -0.187982 -1.335704
15.650000 -0.273449 -1.347778
15.700000 -0.386268 -1.359659
15.750000 -0.523614 -1.371351
15.800000 -0.682034 -1.382857
15.850000 -0.857547 -1.394180
15.900000 -1.045747 -1.405323
15.950000 -1.241924 -1.416288
16.000000 -1.441186 -1.427079
16.050000 -1.638591 -1.437699
16.100000 -1.829277 -1.448149
16.150000 -2.008584 -1.458434
16.200000 -2.172180 -1.468555
16.250000 -2.316168 -1.478515
16.300000 -2.437186 -1.488317
16.350000 -2.532491 -1.497963
16.400000 -2.600028 -1.507456
16.450000 -2.638476 -1.516799
16.500000 -2.647279 -1.525993
16.550000 -2.626657 -1.535041
16.600000 -2.577590 -1.543945
16.650000 -2.501794 -1.552709
16.700000 -2.401663 -1.561333
16.750000 -2.280209 -1.569820
16.800000 -2.140977 -1.578173
16.850000 -1.987946 -1.586394
16.900000 -1.825424 -1.594484
16.950000 -1.657934 -1.602446
17.000000 -1.490095 -1.610281
17.050000 -1.326497 -1.617993
17.100000 -1.171586 -1.625583
17.150000 -1.029547 -1.633052
17.200000 -0.904194 -1.640403
17.250000 -0.798878 -1.647638
17.300000 -0.716399 -1.654758
17.350000 -0.658939 -1.661765
17.400000 -0.628007 -1.668662
17.450000 -0.624408 -1.675450
17.500000 -0.648222 -1.682130
17.550000 -0.698811 -1.688704
17.600000 -0.774840 -1.695175
17.650000 -0.874316 -1.701543
17.700000 -0.994644 -1.707811
17.750000 -1.132701 -1.713980
17.800000 -1.284920 -1.720051
17.850000 -1.447385 -1.726026
17.900000 -1.615939 -1.731907
17.950000 -1.786293 -1.737695
18.000000 -1.954137 -1.743392
18.050000 -2.115254 -1.748998
18.100000 -2.265632 -1.754516
18.150000 -2.401563 -1.759948
18.200000 -2.519741 -1.765293
18.250000 -2.617344 -1.770554
18.300000 -2.692105 -1.775732
18.350000 -2.742367 -1.780829
18.400000 -2.767122 -1.785845
18.450000 -2.766034 -1.790782
18.500000 -2.739441 -1.795641
18.550000 -2.688344 -1.800424
18.600000 -2.614373 -1.805131
18.650000 -2.519744 -1.809764
18.700000 -2.407195 -1.814324
18.750000 -2.279908 -1.818812
18.800000 -2.141430 -1.823230
18.850000 -1.995570 -1.827578
18.900000 -1.846304 -1.831857
18.950000 -1.697666 -1.836070
19.000000 -1.553644 -1.840216
19.050000 -1.418075 -1.844296
19.100000 -1.294549 -1.848313
19.150000 -1.186311 -1.852266
19.200000 -1.096187 -1.856157
19.250000 -1.026506 -1.859987
19.300000 -0.979044 -1.863757
19.350000 -0.954985 -1.867467
19.400000 -0.954891 -1.871119
19.450000 -0.978694 -1.874714
19.500000 -1.025699 -1.878252
19.550000 -1.094609 -1.881735
19.600000 -1.183564 -1.885163
19.650000 -1.290190 -1.888537
19.700000 -1.411667 -1.891858
19.750000 -1.544808 -1.895127
19.800000 -1.686138 -1.898345
19.850000 -1.831995 -1.901512
19.900000 -1.978622 -1.904629
19.950000 -2.122264 -1.907698
20.000000 -2.259273 -1.910718
20.050000 -2.386196 -1.913691
20.100000 -2.499867 -1.916617
20.150000 -2.597487 -1.919498
20.200000 -2.676694 -1.922333
20.250000 -2.735623 -1.925124
20.300000 -2.772950 -1.927871
20.350000 -2.787922 -1.930575
20.400000 -2.780377 -1.933236
20.450000 -2.750738 -1.935856
20.500000 -2.700002 -1.938435
20.550000 -2.629710 -1.940973
20.600000 -2.541900 -1.943472
20.650000 -2.439054 -1.945932
20.700000 -2.324027 -1.948353
20.750000 -2.199972 -1.950736
20.800000 -2.070253 -1.953081
20.850000 -1.938361 -1.955390
20.900000 -1.807814 -1.957663
20.950000 -1.682073 -1.959901
21.000000 -1.564446 -1.962103
21.050000 -1.458007 -1.964271
21.100000 -1.365514 -1.966405
21.150000 -1.289340 -1.968505
21.200000 -1.231418 -1.970573
21.250000 -1.193185 -1.972608
21.300000 -1.175556 -1.974612
21.350000 -1.178901 -1.976584
21.400000 -1.203037 -1.978526
21.450000 -1.247240 -1.980437
21.500000 -1.310265 -1.982318
21.550000 -1.390384 -1.984170
21.600000 -1.485435 -1.985992
21.650000 -1.592878 -1.987787
21.700000 -1.709868 -1.989553
21.750000 -1.833330 -1.991292
21.800000 -1.960040 -1.993004
21.850000 -2.086710 -1.994688
21.900000 -2.210079 -1.996347
21.950000 -2.326989 -1.997980
22.000000 -2.434477 -1.999587
22.050000 -2.529843 -2.001169
22.100000 -2.610722 -2.002726
22.150000 -2.675145 -2.004259
22.200000 -2.721585 -2.005769
22.250000 -2.748993 -2.007254
22.300000 -2.756827 -2.008717
22.350000 -2.745056 -2.010156
22.400000 -2.714163 -2.011574
22.450000 -2.665125 -2.012969
22.500000 -2.599387 -2.014342
22.550000 -2.518817 -2.015694
22.600000 -2.425659 -2.017025
22.650000 -2.322469 -2.018335
22.700000 -2.212046 -2.019625
22.750000 -2.097358 -2.020894
22.800000 -1.981464 -2.022144
22.850000 -1.867430 -2.023375
22.900000 -1.758255 -2.024586
22.950000 -1.656788 -2.025778
23.000000 -1.565655 -2.026952
23.050000 -1.487196 -2.028108
23.100000 -1.423400 -2.029245
23.150000 -1.375863 -2.030365
23.200000 -1.345740 -2.031467
23.250000 -1.333727 -2.032552
23.300000 -1.340037 -2.033621
23.350000 -1.364408 -2.034672
23.400000 -1.406104 -2.035708
23.450000 -1.463941 -2.036727
23.500000 -1.536325 -2.037730
23.550000 -1.621288 -2.038718
23.600000 -1.716551 -2.039691
23.650000 -1.819579 -2.040648
23.700000 -1.927653 -2.041590
23.750000 -2.037939 -2.042518
23.800000 -2.147566 -2.043431
23.850000 -2.253700 -2.044330
23.900000 -2.353617 -2.045216
23.950000 -2.444775 -2.046087
24.000000 -2.524877 -2.046945
24.050000 -2.591931 -2.047789
24.100000 -2.644299 -2.048621
24.150000 -2.680737 -2.049439
24.200000 -2.700428 -2.050245
24.250000 -2.702994 -2.051038
24.300000 -2.688510 -2.051819
24.350000 -2.657493 -2.052588
24.400000 -2.610888 -2.053345
24.450000 -2.550043 -2.054090
24.500000 -2.476664 -2.054824
24.550000 -2.392775 -2.055546
24.600000 -2.300659 -2.056257
24.650000 -2.202798 -2.056957
24.700000 -2.101805 -2.057646
24.750000 -2.000359 -2.058324
24.800000 -1.901130 -2.058992
24.850000 -1.806710 -2.059650
24.900000 -1.719551 -2.060297
24.950000 -1.641893 -2.060934
25.000000 -1.575715 -2.061562
25.050000 -1.522682 -2.062179
25.100000 -1.484104 -2.062787
25.150000 -1.460902 -2.063386
25.200000 -1.453592 -2.063975
25.250000 -1.462267 -2.064556
25.300000 -1.486607 -2.065127
25.350000 -1.525879 -2.065689
25.400000 -1.578969 -2.066243
25.450000 -1.644410 -2.066788
25.500000 -1.720419 -2.067325
25.550000 -1.804952 -2.067853
25.600000 -1.895756 -2.068373
25.650000 -1.990429 -2.068885
25.700000 -2.086485 -2.069389
25.750000 -2.181420 -2.069886
25.800000 -2.272774 -2.070374
25.850000 -2.358201 -2.070855
25.900000 -2.435522 -2.071329
25.950000 -2.502789 -2.071795
26.000000 -2.558326 -2.072255
26.050000 -2.600778 -2.072707
26.100000 -2.629138 -2.073152
26.150000 -2.642777 -2.073590
26.200000 -2.641452 -2.074021
26.250000 -2.625315 -2.074446
26.300000 -2.594900 -2.074864
26.350000 -2.551114 -2.075275
26.400000 -2.495203 -2.075681
26.450000 -2.428723 -2.076080
26.500000 -2.353495 -2.076472
26.550000 -2.271555 -2.076859
26.600000 -2.185099 -2.077240
26.650000 -2.096427 -2.077615
26.700000 -2.007880 -2.077984
26.750000 -1.921779 -2.078347
26.800000 -1.840365 -2.078705
26.850000 -1.765742 -2.079057
26.900000 -1.699818 -2.079404
26.950000 -1.644266 -2.079746
27.000000 -1.600471 -2.080082
27.050000 -1.569504 -2.080413
27.100000 -1.552094 -2.080739
27.150000 -1.548608 -2.081059
27.200000 -1.559048 -2.081375
27.250000 -1.583054 -2.081686
27.300000 -1.619911 -2.081992
27.350000 -1.668576 -2.082294
27.400000 -1.727703 -2.082591
27.450000 -1.795682 -2.082883
27.500000 -1.870684 -2.083171
27.550000 -1.950709 -2.083454
27.600000 -2.033639 -2.083733
27.650000 -2.117296 -2.084007
27.700000 -2.199496 -2.084278
27.750000 -2.278112 -2.084544
27.800000 -2.351120 -2.084806
27.850000 -2.416662 -2.085064
27.900000 -2.473084 -2.085318
27.950000 -2.518984 -2.085568
28.000000 -2.553241 -2.085814
28.050000 -2.575051 -2.086057
28.100000 -2.583936 -2.086296
28.150000 -2.579760 -2.086531
28.200000 -2.562731 -2.086762
28.250000 -2.533389 -2.086990
28.300000 -2.492593 -2.087214
28.350000 -2.441493 -2.087435
28.400000 -2.381501 -2.087653
28.450000 -2.314253 -2.087867
28.500000 -2.241561 -2.088078
28.550000 -2.165366 -2.088285
28.600000 -2.087689 -2.088490
28.650000 -2.010574 -2.088691
28.700000 -1.936035 -2.088889
28.750000 -1.866008 -2.089084
28.800000 -1.802293 -2.089276
28.850000 -1.746517 -2.089465
28.900000 -1.700085 -2.089651
28.950000 -1.664149 -2.089835
29.000000 -1.639580 -2.090015
29.050000 -1.626944 -2.090193
29.100000 -1.626492 -2.090368
29.150000 -1.638157 -2.090540
29.200000 -1.661553 -2.090710
29.250000 -1.695991 -2.090877
29.300000 -1.740500 -2.091041
29.350000 -1.793851 -2.091203
29.400000 -1.854594 -2.091363
29.450000 -1.921094 -2.091520
29.500000 -1.991579 -2.091674
29.550000 -2.064184 -2.091826
29.600000 -2.137003 -2.091976
29.650000 -2.208136 -2.092124
29.700000 -2.275742 -2.092269
29.750000 -2.338082 -2.092412
29.800000 -2.393570 -2.092553
29.850000 -2.440808 -2.092692
29.900000 -2.478624 -2.092828
29.950000 -2.506100 -2.092963
30.000000 -2.522593 -2.093095
30.050000 -2.527753 -2.093225
30.100000 -2.521529 -2.093354
30.150000 -2.504165 -2.093480
30.200000 -2.476196 -2.093604
30.250000 -2.438430 -2.093727
30.300000 -2.391925 -2.093848
30.350000 -2.337959 -2.093966
30.400000 -2.277997 -2.094083
30.450000 -2.213650 -2.094198
30.500000 -2.146632 -2.094312
30.550000 -2.078715 -2.094423
30.600000 -2.011682 -2.094533
30.650000 -1.947279 -2.094642
30.700000 -1.887174 -2.094748
30.750000 -1.832909 -2.094853
30.800000 -1.785863 -2.094956
30.850000 -1.747216 -2.095058
30.900000 -1.717923 -2.095158
30.950000 -1.698685 -2.095257
31.000000 -1.689937 -2.095354
31.050000 -1.691837 -2.095450
31.100000 -1.704263 -2.095544
31.150000 -1.726820 -2.095636
31.200000 -1.758850 -2.095728
31.250000 -1.799454 -2.095818
31.300000 -1.847513 -2.095906
31.350000 -1.901722 -2.095993
31.400000 -1.960626 -2.096079
31.450000 -2.022654 -2.096164
31.500000 -2.086168 -2.096247
31.550000 -2.149501 -2.096329
31.600000 -2.211003 -2.096409
31.650000 -2.269081 -2.096489
31.700000 -2.322246 -2.096567
31.750000 -2.369146 -2.096644
31.800000 -2.408600 -2.096720
31.850000 -2.439634 -2.096794
31.900000 -2.461496 -2.096868
31.950000 -2.473683 -2.096940
32.000000 -2.475946 -2.097012
32.050000 -2.468296 -2.097082
32.100000 -2.451005 -2.097151
32.150000 -2.424593 -2.097219
32.200000 -2.389815 -2.097286
32.250000 -2.347641 -2.097352
32.300000 -2.299224 -2.097417
32.350000 -2.245874 -2.097481
32.400000 -2.189021 -2.097544
32.450000 -2.130176 -2.097606
32.500000 -2.070891 -2.097667
32.550000 -2.012718 -2.097727
32.600000 -1.957172 -2.097786
32.650000 -1.905685 -2.097845
32.700000 -1.859576 -2.097902
32.750000 -1.820012 -2.097958
32.800000 -1.787983 -2.098014
32.850000 -1.764273 -2.098069
32.900000 -1.749446 -2.098123
32.950000 -1.743828 -2.098176
33.000000 -1.747502 -2.098228
33.050000 -1.760310 -2.098280
33.100000 -1.781854 -2.098331
33.150000 -1.811512 -2.098381
33.200000 -1.848453 -2.098430
33.250000 -1.891665 -2.098478
33.300000 -1.939976 -2.098526
33.350000 -1.992089 -2.098573
33.400000 -2.046618 -2.098619
33.450000 -2.102125 -2.098665
33.500000 -2.157153 -2.098710
33.550000 -2.210270 -2.098754
33.600000 -2.260103 -2.098797
33.650000 -2.305375 -2.098840
33.700000 -2.344937 -2.098882
33.750000 -2.377796 -2.098924
33.800000 -2.403143 -2.098965
33.850000 -2.420369 -2.099005
33.900000 -2.429082 -2.099045
33.950000 -2.429114 -2.099084
34.000000 -2.420527 -2.099122
34.050000 -2.403606 -2.099160
34.100000 -2.378852 -2.099197
34.150000 -2.346968 -2.099234
34.200000 -2.308836 -2.099270
34.250000 -2.265498 -2.099306
34.300000 -2.218122 -2.099341
34.350000 -2.167974 -2.099375
34.400000 -2.116385 -2.099409
34.450000 -2.064713 -2.099443
34.500000 -2.014308 -2.099475
34.550000 -1.966480 -2.099508
34.600000 -1.922459 -2.099540
34.650000 -1.883370 -2.099571
34.700000 -1.850200 -2.099602
34.750000 -1.823774 -2.099633
34.800000 -1.804737 -2.099663
34.850000 -1.793535 -2.099692
34.900000 -1.790406 -2.099722
34.950000 -1.795377 -2.099750
35.000000 -1.808261 -2.099779
35.050000 -1.828668 -2.099806
35.100000 -1.856014 -2.099834
35.150000 -1.889535 -2.099861
35.200000 -1.928315 -2.099887
35.250000 -1.971304 -2.099913
35.300000 -2.017352 -2.099939
35.350000 -2.065234 -2.099964
35.400000 -2.113689 -2.099989
35.450000 -2.161448 -2.100014
35.500000 -2.207268 -2.100038
35.550000 -2.249967 -2.100062
35.600000 -2.288454 -2.100086
35.650000 -2.321752 -2.100109
35.700000 -2.349029 -2.100131
35.750000 -2.369615 -2.100154
35.800000 -2.383020 -2.100176
35.850000 -2.388945 -2.100198
35.900000 -2.387288 -2.100219
35.950000 -2.378145 -2.100240
36.000000 -2.361808 -2.100261
36.050000 -2.338755 -2.100281
36.100000 -2.309635 -2.100302
36.150000 -2.275251 -2.100321
36.200000 -2.236539 -2.100341
36.250000 -2.194541 -2.100360
36.300000 -2.150376 -2.100379
36.350000 -2.105214 -2.100398
36.400000 -2.060241 -2.100416
36.450000 -2.016631 -2.100434
36.500000 -1.975515 -2.100452
36.550000 -1.937948 -2.100469
36.600000 -1.904888 -2.100487
36.650000 -1.877167 -2.100504
36.700000 -1.855471 -2.100520
36.750000 -1.840327 -2.100537
36.800000 -1.832084 -2.100553
36.850000 -1.830909 -2.100569
36.900000 -1.836785 -2.100585
36.950000 -1.849508 -2.100600
37.000000 -1.868700 -2.100616
37.050000 -1.893815 -2.100631
37.100000 -1.924154 -2.100645
37.150000 -1.958891 -2.100660
37.200000 -1.997088 -2.100674
37.250000 -2.037723 -2.100689
37.300000 -2.079718 -2.100702
