time[ns] Raw_signal[mV]
-11.150000 -0.055773
-11.100000 -0.066051
-11.050000 -0.083180
-11.000000 -0.072903
-10.950000 -0.035219
-10.900000 0.009318
-10.850000 0.060706
-10.800000 0.125798
-10.750000 0.187465
-10.700000 0.238853
-10.650000 0.276537
-10.600000 0.300518
-10.550000 0.297092
-10.500000 0.290242
-10.450000 0.283389
-10.400000 0.252557
-10.350000 0.184039
-10.300000 0.105243
-10.250000 0.026447
-10.200000 -0.038644
-10.150000 -0.096884
-10.100000 -0.148272
-10.050000 -0.179106
-10.000000 -0.196236
-9.950000 -0.182532
-9.900000 -0.120866
-9.850000 -0.042070
-9.800000 0.026448
-9.750000 0.101817
-9.700000 0.194316
-9.650000 0.286816
-9.600000 0.348482
-9.550000 0.399870
-9.500000 0.440980
-9.450000 0.454684
-9.400000 0.444406
-9.350000 0.399870
-9.300000 0.307371
-9.250000 0.170336
-9.200000 0.023022
-9.150000 -0.117440
-9.100000 -0.261327
-9.050000 -0.398363
-9.000000 -0.504565
-8.950000 -0.576509
-8.900000 -0.648453
-8.850000 -0.696415
-8.800000 -0.658730
-8.750000 -0.573083
-8.700000 -0.484010
-8.650000 -0.370956
-8.600000 -0.220216
-8.550000 -0.079755
-8.500000 0.040152
-8.450000 0.139502
-8.400000 0.211446
-8.350000 0.232001
-8.300000 0.214871
-8.250000 0.142928
-8.200000 0.026448
-8.150000 -0.069477
-8.100000 -0.161976
-8.050000 -0.281882
-8.000000 -0.381233
-7.950000 -0.418918
-7.900000 -0.429195
-7.850000 -0.425770
-7.800000 -0.370955
-7.750000 -0.302437
-7.700000 -0.244197
-7.650000 -0.155124
-7.600000 -0.059199
-7.550000 -0.018088
-7.500000 0.012744
-7.450000 0.088113
-7.400000 0.146354
-7.350000 0.166909
-7.300000 0.187464
-7.250000 0.214871
-7.200000 0.228575
-7.150000 0.228575
-7.100000 0.197742
-7.050000 0.149780
-7.000000 0.108669
-6.950000 0.081262
-6.900000 0.040151
-6.850000 0.002466
-6.800000 -0.011237
-6.750000 -0.024940
-6.700000 -0.042070
-6.650000 -0.042070
-6.600000 -0.048922
-6.550000 -0.083181
-6.500000 -0.110588
-6.450000 -0.083181
-6.400000 -0.062625
-6.350000 -0.076329
-6.300000 -0.076329
-6.250000 -0.035218
-6.200000 -0.024941
-6.150000 -0.045496
-6.100000 -0.069477
-6.050000 -0.100311
-6.000000 -0.127717
-5.950000 -0.141421
-5.900000 -0.161976
-5.850000 -0.216790
-5.800000 -0.275031
-5.750000 -0.299012
-5.700000 -0.295586
-5.650000 -0.281882
-5.600000 -0.254475
-5.550000 -0.185957
-5.500000 -0.059200
-5.450000 0.070984
-5.400000 0.163483
-5.350000 0.269686
-5.300000 0.393017
-5.250000 0.464961
-5.200000 0.468388
-5.150000 0.458110
-5.100000 0.427277
-5.050000 0.324500
-5.000000 0.170336
-4.950000 0.012744
-4.900000 -0.107162
-4.850000 -0.203087
-4.800000 -0.285309
-4.750000 -0.350400
-4.700000 -0.364104
-4.650000 -0.343548
-4.600000 -0.329845
-4.550000 -0.319567
-4.500000 -0.285309
-4.450000 -0.257901
-4.400000 -0.251050
-4.350000 -0.223642
-4.300000 -0.189384
-4.250000 -0.172253
-4.200000 -0.179106
-4.150000 -0.185958
-4.100000 -0.172254
-4.050000 -0.124291
-4.000000 -0.059200
-3.950000 -0.007811
-3.900000 0.047003
-3.850000 0.098392
-3.800000 0.125798
-3.750000 0.132650
-3.700000 0.115521
-3.650000 0.036725
-3.600000 -0.107162
-3.550000 -0.244198
-3.500000 -0.357252
-3.450000 -0.487435
-3.400000 -0.590213
-3.350000 -0.634749
-3.300000 -0.682711
-3.250000 -0.778636
-3.200000 -0.740951
-3.150000 -0.535398
-3.100000 -0.391511
-3.050000 -0.353826
-3.000000 -0.155125
-2.950000 0.180612
-2.900000 0.334778
-2.850000 0.386166
-2.800000 0.512924
-2.750000 0.564313
-2.700000 0.533480
-2.650000 0.639682
-2.600000 0.715051
-2.550000 0.516351
-2.500000 0.358760
-2.450000 0.375889
-2.400000 0.197742
-2.350000 -0.090033
-2.300000 -0.114013
-2.250000 -0.100310
-2.200000 -0.319567
-2.150000 -0.408640
-2.100000 -0.199661
-2.050000 -0.120866
-2.000000 -0.261327
-1.950000 -0.278456
-1.900000 -0.155124
-1.850000 -0.024941
-1.800000 0.122372
-1.750000 0.190890
-1.700000 0.094966
-1.650000 0.081263
-1.600000 0.180613
-1.550000 0.108670
-1.500000 -0.042070
-1.450000 0.043577
-1.400000 0.177187
-1.350000 0.105243
-1.300000 0.036725
-1.250000 0.053854
-1.200000 -0.031793
-1.150000 -0.031792
-1.100000 0.184039
-1.050000 0.218298
-1.000000 0.002466
-0.950000 0.023021
-0.900000 0.286815
-0.850000 0.375889
-0.800000 0.396443
-0.750000 0.625979
-0.700000 0.804125
-0.650000 0.780143
-0.600000 0.838383
-0.550000 0.989123
-0.500000 0.948012
-0.450000 0.817828
-0.400000 0.790421
-0.350000 0.759588
-0.300000 0.615700
-0.250000 0.451258
-0.200000 0.297093
-0.150000 0.122373
-0.100000 -0.038644
-0.050000 -0.175680
0.000000 -0.275031
0.050000 -0.316141
0.100000 -0.367529
0.150000 -0.460028
0.200000 -0.442899
0.250000 -0.305863
0.300000 -0.281883
0.350000 -0.364103
0.400000 -0.281882
0.450000 -0.079755
0.500000 0.005892
0.550000 0.019596
0.600000 0.108669
0.650000 0.170335
0.700000 0.136077
0.750000 0.184039
0.800000 0.386166
0.850000 0.725329
0.900000 1.314582
0.950000 2.297813
1.000000 3.716131
1.050000 5.679166
1.100000 8.361638
1.150000 11.845772
1.200000 16.111006
1.250000 21.147056
1.300000 26.912830
1.350000 33.305543
1.400000 40.102506
1.450000 47.053643
1.500000 54.076711
1.550000 61.116924
1.600000 67.982399
1.650000 74.440209
1.700000 80.521159
1.750000 86.197869
1.800000 91.278459
1.850000 95.677299
1.900000 99.500589
1.950000 102.772319
2.000000 105.375999
2.050000 107.284209
2.100000 108.524389
2.150000 109.099939
2.200000 108.976599
2.250000 108.096149
2.300000 106.417459
2.350000 104.019339
2.400000 100.973719
2.450000 97.328579
2.500000 93.155849
2.550000 88.585709
2.600000 83.642149
2.650000 78.390259
2.700000 73.052719
2.750000 67.783699
2.800000 62.545519
2.850000 57.427239
2.900000 52.716639
2.950000 48.482239
3.000000 44.652099
3.050000 41.332409
3.100000 38.656789
3.150000 36.580689
3.200000 35.080159
3.250000 34.216829
3.300000 33.942759
3.350000 34.103779
3.400000 34.655349
3.450000 35.573489
3.500000 36.745129
3.550000 38.050399
3.600000 39.393349
3.650000 40.715749
3.700000 41.986749
3.750000 43.144699
3.800000 44.107379
3.850000 44.826809
3.900000 45.292739
3.950000 45.470879
4.000000 45.350969
4.050000 44.950139
4.100000 44.237559
4.150000 43.202939
4.200000 41.887399
4.250000 40.321769
4.300000 38.471789
4.350000 36.392269
4.400000 34.182569
4.450000 31.890649
4.500000 29.523359
4.550000 27.142369
4.600000 24.829889
4.650000 22.627039
4.700000 20.564663
4.750000 18.714678
4.800000 17.125065
4.850000 15.836930
4.900000 14.857126
4.950000 14.151392
5.000000 13.692323
5.050000 13.503901
5.100000 13.596396
5.150000 13.891029
5.200000 14.336392
5.250000 14.898237
5.300000 15.549160
5.350000 16.258319
5.400000 17.029136
5.450000 17.793112
5.500000 18.491991
5.550000 19.160040
5.600000 19.790406
5.650000 20.317990
5.700000 20.694838
5.750000 20.920952
5.800000 20.992895
5.850000 20.869566
5.900000 20.564658
5.950000 20.074753
6.000000 19.393007
6.050000 18.526256
6.100000 17.505340
6.150000 16.367944
6.200000 15.165456
6.250000 13.949265
6.300000 12.753629
6.350000 11.623085
6.400000 10.585041
6.450000 9.642921
6.500000 8.824133
6.550000 8.173214
6.600000 7.683312
6.650000 7.306464
6.700000 7.015264
6.750000 6.796006
6.800000 6.621286
6.850000 6.470547
6.900000 6.364344
6.950000 6.312956
7.000000 6.302678
7.050000 6.343789
7.100000 6.449991
7.150000 6.638416
7.200000 6.905635
7.250000 7.268779
7.300000 7.707294
7.350000 8.183492
7.400000 8.656265
7.450000 9.087927
7.500000 9.464775
7.550000 9.759401
7.600000 9.916992
7.650000 9.920418
7.700000 9.773105
7.750000 9.475053
7.800000 9.050242
7.850000 8.553488
7.900000 8.005345
7.950000 7.436648
8.000000 6.898783
8.050000 6.422585
8.100000 5.994348
8.150000 5.617501
8.200000 5.305744
8.250000 5.031674
8.300000 4.778158
8.350000 4.552049
8.400000 4.315662
8.450000 4.055295
8.500000 3.781223
8.550000 3.517429
8.600000 3.219377
8.650000 2.883640
8.700000 2.558180
8.750000 2.290961
8.800000 2.054574
8.850000 1.838744
8.900000 1.694856
8.950000 1.660597
9.000000 1.705134
9.050000 1.801058
9.100000 1.975779
9.150000 2.242998
9.200000 2.561607
9.250000 2.900770
9.300000 3.257062
9.350000 3.579095
9.400000 3.846315
9.450000 4.075850
9.500000 4.284829
9.550000 4.438994
9.600000 4.531493
9.650000 4.576030
9.700000 4.552048
9.750000 4.459549
9.800000 4.264274
9.850000 3.976499
9.900000 3.620207
9.950000 3.198822
10.000000 2.722623
10.050000 2.222444
10.100000 1.718837
10.150000 1.218657
10.200000 0.790421
10.250000 0.485517
10.300000 0.262834
10.350000 0.094965
10.400000 0.023022
10.450000 0.060707
10.500000 0.160058
10.550000 0.276538
10.600000 0.389592
10.650000 0.451258
10.700000 0.451258
10.750000 0.413573
10.800000 0.345056
10.850000 0.235427
10.900000 0.101818
10.950000 -0.004386
11.000000 -0.048922
11.050000 -0.042070
11.100000 0.026448
11.150000 0.194316
11.200000 0.454684
11.250000 0.752736
11.300000 1.057640
11.350000 1.362545
11.400000 1.650320
11.450000 1.873002
11.500000 2.023741
11.550000 2.116240
11.600000 2.133370
11.650000 2.061427
11.700000 1.893558
11.750000 1.677726
11.800000 1.472173
11.850000 1.256342
11.900000 0.985697
11.950000 0.708199
12.000000 0.502646
12.050000 0.327926
12.100000 0.108669
12.150000 -0.093459
12.200000 -0.233921
12.250000 -0.367530
12.300000 -0.511417
12.350000 -0.607342
12.400000 -0.682712
12.450000 -0.775211
12.500000 -0.840303
12.550000 -0.871135
12.600000 -0.895117
12.650000 -0.895117
12.700000 -0.847155
12.750000 -0.771785
12.800000 -0.679286
12.850000 -0.586787
12.900000 -0.511417
12.950000 -0.429196
13.000000 -0.326420
13.050000 -0.247623
13.100000 -0.203087
13.150000 -0.161977
13.200000 -0.148273
13.250000 -0.172254
13.300000 -0.168828
13.350000 -0.144847
13.400000 -0.137995
13.450000 -0.096884
13.500000 -0.000959
13.550000 0.060707
13.600000 0.088114
13.650000 0.160057
13.700000 0.238852
13.750000 0.266260
13.800000 0.273112
13.850000 0.266260
13.900000 0.160057
13.950000 -0.007811
14.000000 -0.172255
14.050000 -0.415492
14.100000 -0.744378
14.150000 -1.049282
14.200000 -1.309650
14.250000 -1.580295
14.300000 -1.789275
14.350000 -1.905754
14.400000 -1.998254
14.450000 -2.059920
14.500000 -2.015382
14.550000 -1.898903
14.600000 -1.782423
14.650000 -1.652238
14.700000 -1.498073
14.750000 -1.347334
14.800000 -1.220576
14.850000 -1.117800
14.900000 -1.049282
14.950000 -1.015023
15.000000 -0.980764
15.050000 -0.922524
15.100000 -0.857432
15.150000 -0.771784
15.200000 -0.672434
15.250000 -0.549102
15.300000 -0.412067
15.350000 -0.299012
15.400000 -0.230494
15.450000 -0.189383
15.500000 -0.192809
15.550000 -0.251049
15.600000 -0.329845
15.650000 -0.422344
15.700000 -0.552528
15.750000 -0.699841
15.800000 -0.812895
15.850000 -0.888265
15.900000 -0.919098
15.950000 -0.874561
16.000000 -0.802618
16.050000 -0.737526
16.100000 -0.641601
16.150000 -0.538824
16.200000 -0.484010
16.250000 -0.463454
16.300000 -0.470306
16.350000 -0.555954
16.400000 -0.706693
16.450000 -0.871135
16.500000 -1.035578
16.550000 -1.206873
16.600000 -1.354186
16.650000 -1.460389
16.700000 -1.535758
16.750000 -1.563165
16.800000 -1.528906
16.850000 -1.450111
16.900000 -1.340482
16.950000 -1.203447
17.000000 -1.073263
17.050000 -0.967060
17.100000 -0.874561
17.150000 -0.802617
17.200000 -0.744378
17.250000 -0.696415
17.300000 -0.675860
17.350000 -0.679286
17.400000 -0.669008
17.450000 -0.631324
17.500000 -0.624472
17.550000 -0.658731
17.600000 -0.699841
17.650000 -0.747804
17.700000 -0.809470
17.750000 -0.922524
17.800000 -1.076689
17.850000 -1.247983
17.900000 -1.439833
17.950000 -1.665942
18.000000 -1.861218
18.050000 -1.984550
18.100000 -2.073623
18.150000 -2.155845
18.200000 -2.166122
18.250000 -2.101030
18.300000 -2.011957
18.350000 -1.888625
18.400000 -1.731034
18.450000 -1.570017
18.500000 -1.405574
18.550000 -1.230854
18.600000 -1.086967
18.650000 -0.960209
18.700000 -0.836877
18.750000 -0.768359
18.800000 -0.764933
18.850000 -0.758081
18.900000 -0.758081
18.950000 -0.802618
19.000000 -0.864284
19.050000 -0.919098
19.100000 -0.997893
19.150000 -1.107522
19.200000 -1.172614
19.250000 -1.210298
19.300000 -1.247984
19.350000 -1.278817
19.400000 -1.295946
19.450000 -1.319927
19.500000 -1.354186
19.550000 -1.381593
19.600000 -1.429556
19.650000 -1.504926
19.700000 -1.573443
19.750000 -1.624831
19.800000 -1.659090
19.850000 -1.662516
19.900000 -1.607702
19.950000 -1.535758
20.000000 -1.463814
20.050000 -1.371315
20.100000 -1.261687
20.150000 -1.186318
20.200000 -1.138355
20.250000 -1.097244
20.300000 -1.093818
20.350000 -1.158911
20.400000 -1.237706
20.450000 -1.309650
20.500000 -1.405575
20.550000 -1.494648
20.600000 -1.498074
20.650000 -1.432982
20.700000 -1.337056
20.750000 -1.186317
20.800000 -0.997894
20.850000 -0.819748
20.900000 -0.624472
20.950000 -0.439473
21.000000 -0.329845
21.050000 -0.292160
21.100000 -0.285309
21.150000 -0.340123
21.200000 -0.490862
21.250000 -0.669008
21.300000 -0.833451
21.350000 -1.015023
21.400000 -1.244557
21.450000 -1.446685
21.500000 -1.563165
21.550000 -1.614554
21.600000 -1.624831
21.650000 -1.580294
21.700000 -1.491222
21.750000 -1.361038
21.800000 -1.186318
21.850000 -1.001320
21.900000 -0.833451
21.950000 -0.689564
22.000000 -0.549102
22.050000 -0.436047
22.100000 -0.370956
22.150000 -0.364104
22.200000 -0.377807
22.250000 -0.388085
22.300000 -0.418918
22.350000 -0.507992
22.400000 -0.603916
22.450000 -0.655304
22.500000 -0.686138
22.550000 -0.730674
22.600000 -0.727248
22.650000 -0.655304
22.700000 -0.579935
22.750000 -0.528546
22.800000 -0.456603
22.850000 -0.401789
22.900000 -0.401789
22.950000 -0.425770
23.000000 -0.460029
23.050000 -0.538824
23.100000 -0.651879
23.150000 -0.775211
23.200000 -0.901969
23.250000 -1.028727
23.300000 -1.124651
23.350000 -1.186318
23.400000 -1.254835
23.450000 -1.302798
23.500000 -1.292520
23.550000 -1.241132
23.600000 -1.186318
23.650000 -1.138355
23.700000 -1.059560
23.750000 -0.977338
23.800000 -0.925950
23.850000 -0.884839
23.900000 -0.857432
23.950000 -0.874562
24.000000 -0.922524
24.050000 -0.946505
24.100000 -0.953357
24.150000 -0.973912
24.200000 -1.001320
24.250000 -1.021875
24.300000 -1.021875
24.350000 -1.001319
24.400000 -0.991042
24.450000 -0.980764
24.500000 -0.953357
24.550000 -0.946505
24.600000 -0.970487
24.650000 -1.001319
24.700000 -1.062986
24.750000 -1.182891
24.800000 -1.316501
24.850000 -1.450110
24.900000 -1.617980
24.950000 -1.775571
25.000000 -1.885199
25.050000 -1.984550
25.100000 -2.046216
25.150000 -2.042790
25.200000 -2.022234
25.250000 -1.987976
25.300000 -1.888625
25.350000 -1.775571
25.400000 -1.703626
25.450000 -1.645386
25.500000 -1.576869
25.550000 -1.566591
25.600000 -1.607702
25.650000 -1.635109
25.700000 -1.676220
25.750000 -1.748163
25.800000 -1.792699
25.850000 -1.792700
25.900000 -1.772144
25.950000 -1.713904
26.000000 -1.652238
26.050000 -1.617979
26.100000 -1.556314
26.150000 -1.443259
26.200000 -1.371316
26.250000 -1.347335
26.300000 -1.323353
26.350000 -1.323353
26.400000 -1.364464
26.450000 -1.405574
26.500000 -1.460389
26.550000 -1.580295
26.600000 -1.696775
26.650000 -1.751589
26.700000 -1.802977
26.750000 -1.892051
26.800000 -1.929736
26.850000 -1.922884
26.900000 -1.946865
26.950000 -2.001679
27.000000 -2.025660
27.050000 -2.018809
27.100000 -2.032512
27.150000 -2.046216
27.200000 -2.046216
27.250000 -2.029086
27.300000 -2.008531
27.350000 -1.974272
27.400000 -1.919458
27.450000 -1.847514
27.500000 -1.761866
27.550000 -1.696775
27.600000 -1.641960
27.650000 -1.566591
27.700000 -1.491221
27.750000 -1.463815
27.800000 -1.470666
27.850000 -1.480944
27.900000 -1.498073
27.950000 -1.508351
28.000000 -1.504925
28.050000 -1.511777
28.100000 -1.528906
28.150000 -1.539184
28.200000 -1.525480
28.250000 -1.515203
28.300000 -1.508350
28.350000 -1.501499
28.400000 -1.484370
28.450000 -1.467240
28.500000 -1.439833
28.550000 -1.381593
28.600000 -1.319926
28.650000 -1.258261
28.700000 -1.182892
28.750000 -1.114373
28.800000 -1.059560
28.850000 -1.008171
28.900000 -0.956783
28.950000 -0.949930
29.000000 -1.011597
29.050000 -1.090392
29.100000 -1.165762
29.150000 -1.254835
29.200000 -1.361038
29.250000 -1.467240
29.300000 -1.563165
29.350000 -1.645386
29.400000 -1.696774
29.450000 -1.710478
29.500000 -1.700201
29.550000 -1.669367
29.600000 -1.621405
29.650000 -1.580295
29.700000 -1.539184
29.750000 -1.487795
29.800000 -1.467241
29.850000 -1.501500
29.900000 -1.570017
29.950000 -1.662516
30.000000 -1.775571
30.050000 -1.874921
30.100000 -1.957142
30.150000 -2.042790
30.200000 -2.125011
30.250000 -2.162696
30.300000 -2.172974
30.350000 -2.186677
30.400000 -2.200381
30.450000 -2.190103
30.500000 -2.179825
30.550000 -2.220936
30.600000 -2.292879
30.650000 -2.361398
30.700000 -2.436767
30.750000 -2.529266
30.800000 -2.611488
30.850000 -2.649172
30.900000 -2.618339
30.950000 -2.522414
31.000000 -2.385379
31.050000 -2.227788
31.100000 -2.029086
31.150000 -1.802978
31.200000 -1.576869
31.250000 -1.367890
31.300000 -1.189743
31.350000 -1.080115
31.400000 -1.042430
31.450000 -1.042430
31.500000 -1.093818
31.550000 -1.230854
31.600000 -1.405574
31.650000 -1.570017
31.700000 -1.734460
31.750000 -1.912606
31.800000 -2.056493
31.850000 -2.162696
31.900000 -2.251769
31.950000 -2.299732
32.000000 -2.310009
32.050000 -2.323713
32.100000 -2.330565
32.150000 -2.299731
32.200000 -2.268898
32.250000 -2.289453
32.300000 -2.320287
32.350000 -2.347694
32.400000 -2.388805
32.450000 -2.416212
32.500000 -2.405934
32.550000 -2.368249
32.600000 -2.323712
32.650000 -2.262047
32.700000 -2.176399
32.750000 -2.090752
32.800000 -2.011956
32.850000 -1.970846
32.900000 -1.963994
32.950000 -1.963994
33.000000 -1.977698
33.050000 -2.022234
33.100000 -2.070197
33.150000 -2.094178
33.200000 -2.118159
33.250000 -2.166122
33.300000 -2.179825
33.350000 -2.159270
33.400000 -2.159270
33.450000 -2.179826
33.500000 -2.179825
33.550000 -2.176399
33.600000 -2.193529
33.650000 -2.200380
33.700000 -2.159270
33.750000 -2.094178
33.800000 -2.046216
33.850000 -1.994827
33.900000 -1.919457
33.950000 -1.840662
34.000000 -1.802978
34.050000 -1.813255
34.100000 -1.868070
34.150000 -1.974272
34.200000 -2.118159
34.250000 -2.248343
34.300000 -2.364823
34.350000 -2.501859
34.400000 -2.645746
34.450000 -2.721116
34.500000 -2.690283
34.550000 -2.614913
34.600000 -2.505285
34.650000 -2.344269
34.700000 -2.169547
34.750000 -2.029086
34.800000 -1.909180
34.850000 -1.816681
34.900000 -1.806403
34.950000 -1.881773
35.000000 -1.977698
35.050000 -2.083900
35.100000 -2.227788
35.150000 -2.371676
35.200000 -2.481304
35.250000 -2.566951
35.300000 -2.604636
35.350000 -2.553247
35.400000 -2.447045
35.450000 -2.337416
35.500000 -2.200381
35.550000 -2.042790
35.600000 -1.912606
35.650000 -1.833810
35.700000 -1.758441
35.750000 -1.703627
35.800000 -1.713904
35.850000 -1.785848
35.900000 -1.878347
35.950000 -1.981124
36.000000 -2.073623
36.050000 -2.152418
36.100000 -2.224362
36.150000 -2.327139
36.200000 -2.433342
36.250000 -2.501859
36.300000 -2.536118
36.350000 -2.560099
36.400000 -2.584081
36.450000 -2.580655
36.500000 -2.570376
36.550000 -2.580654
36.600000 -2.580655
36.650000 -2.539544
36.700000 -2.474451
36.750000 -2.409360
36.800000 -2.340842
36.850000 -2.272324
36.900000 -2.210658
36.950000 -2.159270
37.000000 -2.114733
37.050000 -2.083901
37.100000 -2.066771
37.150000 -2.046215
37.200000 -2.042789
37.250000 -2.049641
37.300000 -2.059919
37.350000 -2.111308
37.400000 -2.196955
37.450000 -2.282602
37.500000 -2.344268
37.550000 -2.419638
37.600000 -2.515563
37.650000 -2.580655
37.700000 -2.611487
37.750000 -2.614913
37.800000 -2.577229
37.850000 -2.484729
37.900000 -2.361397
37.950000 -2.234640
38.000000 -2.118159
38.050000 -2.029086
38.100000 -1.970846
38.150000 -1.946865
38.200000 -1.950291
38.250000 -1.991401
38.300000 -2.066771
38.350000 -2.166122
38.400000 -2.292880
38.450000 -2.416212
38.500000 -2.495007
38.550000 -2.532692
38.600000 -2.539543
38.650000 -2.508711
38.700000 -2.426490
38.750000 -2.323713
38.800000 -2.217510
38.850000 -2.125011
38.900000 -2.046215
38.950000 -1.981124
39.000000 -1.916031
39.050000 -1.871495
39.100000 -1.864643
39.150000 -1.881773
39.200000 -1.909180
39.250000 -1.957143
39.300000 -2.005105
39.350000 -2.029086
39.400000 -2.042790
39.450000 -2.070197
39.500000 -2.077049
39.550000 -2.070197
39.600000 -2.080474
39.650000 -2.114733
39.700000 -2.121586
39.750000 -2.118159
