time[ns] Raw_signal[mV]
-11.100000 0.259134
-11.050000 0.228301
-11.000000 0.166635
-10.950000 0.067285
-10.900000 -0.018363
-10.850000 -0.093733
-10.800000 -0.193083
-10.750000 -0.278730
-10.700000 -0.289008
-10.650000 -0.285582
-10.600000 -0.295860
-10.550000 -0.254749
-10.500000 -0.162250
-10.450000 -0.090306
-10.400000 -0.014937
-10.350000 0.101544
-10.300000 0.194043
-10.250000 0.228302
-10.200000 0.269412
-10.150000 0.327652
-10.100000 0.334504
-10.050000 0.303671
-10.000000 0.269412
-9.950000 0.218024
-9.900000 0.166636
-9.850000 0.128951
-9.800000 0.053582
-9.750000 -0.011511
-9.700000 -0.008085
-9.650000 0.022748
-9.600000 0.012471
-9.550000 -0.001233
-9.500000 0.036452
-9.450000 0.063859
-9.400000 0.070711
-9.350000 0.067285
-9.300000 0.053582
-9.250000 0.026174
-9.200000 -0.001233
-9.150000 -0.035492
-9.100000 -0.080029
-9.050000 -0.121140
-9.000000 -0.158824
-8.950000 -0.186231
-8.900000 -0.196509
-8.850000 -0.196509
-8.800000 -0.206787
-8.750000 -0.203360
-8.700000 -0.165676
-8.650000 -0.121139
-8.600000 -0.083455
-8.550000 -0.028640
-8.500000 0.019322
-8.450000 0.050156
-8.400000 0.101543
-8.350000 0.180339
-8.300000 0.238579
-8.250000 0.272838
-8.200000 0.320801
-8.150000 0.392744
-8.100000 0.454411
-8.050000 0.492095
-8.000000 0.505799
-7.950000 0.509225
-7.900000 0.509224
-7.850000 0.495521
-7.800000 0.454410
-7.750000 0.375615
-7.700000 0.300246
-7.650000 0.214598
-7.600000 0.087840
-7.550000 -0.052622
-7.500000 -0.165676
-7.450000 -0.265027
-7.400000 -0.367803
-7.350000 -0.429470
-7.300000 -0.456877
-7.250000 -0.497987
-7.200000 -0.535672
-7.150000 -0.508265
-7.100000 -0.443172
-7.050000 -0.402062
-7.000000 -0.398637
-6.950000 -0.374656
-6.900000 -0.319841
-6.850000 -0.282156
-6.800000 -0.282156
-6.750000 -0.268453
-6.700000 -0.230767
-6.650000 -0.189657
-6.600000 -0.155398
-6.550000 -0.097158
-6.500000 -0.028640
-6.450000 0.026174
-6.400000 0.077563
-6.350000 0.152932
-6.300000 0.231728
-6.250000 0.276264
-6.200000 0.286542
-6.150000 0.293393
-6.100000 0.283116
-6.050000 0.231727
-6.000000 0.163209
-5.950000 0.104969
-5.900000 0.080988
-5.850000 0.067284
-5.800000 0.067285
-5.750000 0.074136
-5.700000 0.091266
-5.650000 0.128951
-5.600000 0.180339
-5.550000 0.214598
-5.500000 0.214598
-5.450000 0.204321
-5.400000 0.176913
-5.350000 0.122099
-5.300000 0.057007
-5.250000 -0.008085
-5.200000 -0.083454
-5.150000 -0.148547
-5.100000 -0.175953
-5.050000 -0.165675
-5.000000 -0.127991
-4.950000 -0.080028
-4.900000 -0.001233
-4.850000 0.115247
-4.800000 0.235154
-4.750000 0.313949
-4.700000 0.355060
-4.650000 0.365337
-4.600000 0.313948
-4.550000 0.214598
-4.500000 0.104970
-4.450000 -0.011511
-4.400000 -0.162250
-4.350000 -0.306138
-4.300000 -0.419191
-4.250000 -0.528820
-4.200000 -0.611042
-4.150000 -0.635023
-4.100000 -0.631596
-4.050000 -0.635023
-4.000000 -0.611042
-3.950000 -0.549375
-3.900000 -0.491136
-3.850000 -0.446599
-3.800000 -0.398637
-3.750000 -0.360951
-3.700000 -0.343822
-3.650000 -0.336970
-3.600000 -0.336970
-3.550000 -0.323266
-3.500000 -0.316415
-3.450000 -0.343822
-3.400000 -0.378081
-3.350000 -0.367804
-3.300000 -0.330118
-3.250000 -0.360952
-3.200000 -0.474005
-3.150000 -0.511691
-3.100000 -0.443173
-3.050000 -0.477432
-3.000000 -0.641875
-2.950000 -0.672708
-2.900000 -0.576783
-2.850000 -0.611042
-2.800000 -0.717244
-2.750000 -0.703541
-2.700000 -0.662430
-2.650000 -0.641874
-2.600000 -0.470580
-2.550000 -0.265027
-2.500000 -0.241045
-2.450000 -0.189657
-2.400000 0.015896
-2.350000 0.074136
-2.300000 0.005618
-2.250000 0.125525
-2.200000 0.269412
-2.150000 0.187191
-2.100000 0.183765
-2.050000 0.420152
-2.000000 0.512651
-1.950000 0.365337
-1.900000 0.341356
-1.850000 0.485243
-1.800000 0.635983
-1.750000 0.779870
-1.700000 0.838109
-1.650000 0.711352
-1.600000 0.618853
-1.550000 0.642834
-1.500000 0.529779
-1.450000 0.324226
-1.400000 0.324226
-1.350000 0.423577
-1.300000 0.365338
-1.250000 0.303671
-1.200000 0.327653
-1.150000 0.296819
-1.100000 0.351634
-1.050000 0.598297
-1.000000 0.653112
-0.950000 0.437281
-0.900000 0.427003
-0.850000 0.612001
-0.800000 0.570891
-0.750000 0.430429
-0.700000 0.471540
-0.650000 0.423578
-0.600000 0.159784
-0.550000 0.009045
-0.500000 0.012471
-0.450000 -0.104010
-0.400000 -0.247898
-0.350000 -0.210212
-0.300000 -0.114288
-0.250000 -0.083454
-0.200000 -0.056048
-0.150000 0.019323
-0.100000 0.101543
-0.050000 0.176913
0.000000 0.248857
0.050000 0.320800
0.100000 0.396170
0.150000 0.399596
0.200000 0.337930
0.250000 0.358485
0.300000 0.468114
0.350000 0.427003
0.400000 0.265987
0.450000 0.272838
0.500000 0.430429
0.550000 0.461262
0.600000 0.375615
0.650000 0.361912
0.700000 0.375615
0.750000 0.303671
0.800000 0.259134
0.850000 0.341356
0.900000 0.485243
0.950000 0.725055
1.000000 1.166996
1.050000 1.811063
1.100000 2.640129
1.150000 3.760395
1.200000 5.219823
1.250000 6.960176
1.300000 8.971175
1.350000 11.314482
1.400000 13.894179
1.450000 16.535542
1.500000 19.197460
1.550000 21.934737
1.600000 24.706281
1.650000 27.351071
1.700000 29.817719
1.750000 32.181581
1.800000 34.425539
1.850000 36.419409
1.900000 38.163182
1.950000 39.780202
2.000000 41.249902
2.050000 42.469522
2.100000 43.408212
2.150000 44.079692
2.200000 44.466822
2.250000 44.569592
2.300000 44.346922
2.350000 43.719982
2.400000 42.723042
2.450000 41.476022
2.500000 39.985762
2.550000 38.221422
2.600000 36.251542
2.650000 34.137762
2.700000 31.890372
2.750000 29.584752
2.800000 27.320242
2.850000 25.076292
2.900000 22.842602
2.950000 20.756230
3.000000 18.909680
3.050000 17.230994
3.100000 15.727028
3.150000 14.500555
3.200000 13.548163
3.250000 12.856133
3.300000 12.472437
3.350000 12.373081
3.400000 12.445024
3.450000 12.712249
3.500000 13.219273
3.550000 13.877048
3.600000 14.551947
3.650000 15.240548
3.700000 15.949711
3.750000 16.621188
3.800000 17.224141
3.850000 17.751733
3.900000 18.162833
3.950000 18.388946
4.000000 18.471165
4.050000 18.447189
4.100000 18.275895
4.150000 17.929880
4.200000 17.436548
4.250000 16.854150
4.300000 16.182676
4.350000 15.394721
4.400000 14.483430
4.450000 13.503626
4.500000 12.534099
4.550000 11.544016
4.600000 10.492269
4.650000 9.478205
4.700000 8.577196
4.750000 7.734427
4.800000 6.936195
4.850000 6.281849
4.900000 5.802224
4.950000 5.442507
5.000000 5.192416
5.050000 5.082788
5.100000 5.106769
5.150000 5.233527
5.200000 5.432228
5.250000 5.696023
5.300000 6.004353
5.350000 6.329811
5.400000 6.631290
5.450000 6.919065
5.500000 7.179433
5.550000 7.391838
5.600000 7.569984
5.650000 7.727575
5.700000 7.857759
5.750000 7.939980
5.800000 7.953684
5.850000 7.919425
5.900000 7.844055
5.950000 7.720723
6.000000 7.546002
6.050000 7.333597
6.100000 7.104063
6.150000 6.816288
6.200000 6.456569
6.250000 6.055740
6.300000 5.637782
6.350000 5.188991
6.400000 4.719643
6.450000 4.253723
6.500000 3.804931
6.550000 3.383546
6.600000 3.020402
6.650000 2.708645
6.700000 2.458556
6.750000 2.273558
6.800000 2.174207
6.850000 2.170781
6.900000 2.229021
6.950000 2.304391
7.000000 2.400316
7.050000 2.530500
7.100000 2.688090
7.150000 2.818274
7.200000 2.903921
7.250000 2.969014
7.300000 3.044384
7.350000 3.116327
7.400000 3.154012
7.450000 3.160863
7.500000 3.188271
7.550000 3.243085
7.600000 3.287621
7.650000 3.315029
7.700000 3.362991
7.750000 3.407528
7.800000 3.400675
7.850000 3.359565
7.900000 3.335584
7.950000 3.284196
8.000000 3.167715
8.050000 3.040958
8.100000 2.903922
8.150000 2.701794
8.200000 2.451704
8.250000 2.222169
8.300000 2.002913
8.350000 1.763101
8.400000 1.560973
8.450000 1.389679
8.500000 1.197829
8.550000 1.029959
8.600000 0.940887
8.650000 0.886073
8.700000 0.841536
8.750000 0.827832
8.800000 0.817555
8.850000 0.773019
8.900000 0.725056
8.950000 0.656538
9.000000 0.546909
9.050000 0.440707
9.100000 0.372189
9.150000 0.310523
9.200000 0.259134
9.250000 0.265986
9.300000 0.320801
9.350000 0.392744
9.400000 0.478392
9.450000 0.584594
9.500000 0.714778
9.550000 0.858666
9.600000 0.947739
9.650000 0.975146
9.700000 0.981998
9.750000 0.975145
9.800000 0.892924
9.850000 0.776444
9.900000 0.690796
9.950000 0.612001
10.000000 0.505799
10.050000 0.427003
10.100000 0.409873
10.150000 0.403022
10.200000 0.375615
10.250000 0.361911
10.300000 0.361911
10.350000 0.327652
10.400000 0.255709
10.450000 0.190617
10.500000 0.122099
10.550000 0.022749
10.600000 -0.083454
10.650000 -0.151972
10.700000 -0.189658
10.750000 -0.230768
10.800000 -0.241045
10.850000 -0.203360
10.900000 -0.145121
10.950000 -0.110861
11.000000 -0.076602
11.050000 -0.018363
11.100000 0.022748
11.150000 0.015896
11.200000 0.012471
11.250000 0.026174
11.300000 0.029600
11.350000 0.009045
11.400000 0.002193
11.450000 0.026174
11.500000 0.060433
11.550000 0.087840
11.600000 0.115247
11.650000 0.152932
11.700000 0.197468
11.750000 0.231728
11.800000 0.245431
11.850000 0.259134
11.900000 0.265986
11.950000 0.238580
12.000000 0.173488
12.050000 0.132377
12.100000 0.098117
12.150000 0.019322
12.200000 -0.073177
12.250000 -0.114288
12.300000 -0.131417
12.350000 -0.175954
12.400000 -0.223916
12.450000 -0.241046
12.500000 -0.265027
12.550000 -0.285582
12.600000 -0.278730
12.650000 -0.275305
12.700000 -0.282156
12.750000 -0.271878
12.800000 -0.241046
12.850000 -0.234193
12.900000 -0.244471
12.950000 -0.258175
13.000000 -0.265027
13.050000 -0.258175
13.100000 -0.251323
13.150000 -0.258175
13.200000 -0.261601
13.250000 -0.247897
13.300000 -0.254749
13.350000 -0.271878
13.400000 -0.271879
13.450000 -0.268453
13.500000 -0.292433
13.550000 -0.292434
13.600000 -0.292434
13.650000 -0.330118
13.700000 -0.357525
13.750000 -0.347248
13.800000 -0.350674
13.850000 -0.374655
13.900000 -0.364377
13.950000 -0.350674
14.000000 -0.367804
14.050000 -0.384933
14.100000 -0.395210
14.150000 -0.436322
14.200000 -0.477432
14.250000 -0.463728
14.300000 -0.460302
14.350000 -0.515116
14.400000 -0.580209
14.450000 -0.593912
14.500000 -0.614467
14.550000 -0.676134
14.600000 -0.741226
14.650000 -0.789188
14.700000 -0.837150
14.750000 -0.888538
14.800000 -0.933075
14.850000 -0.981038
14.900000 -1.032426
14.950000 -1.070111
15.000000 -1.070111
15.050000 -1.029000
15.100000 -0.970760
15.150000 -0.909094
15.200000 -0.823446
15.250000 -0.710393
15.300000 -0.600764
15.350000 -0.508265
15.400000 -0.429469
15.450000 -0.350674
15.500000 -0.275304
15.550000 -0.213638
15.600000 -0.186231
15.650000 -0.199935
15.700000 -0.220490
15.750000 -0.271878
15.800000 -0.388359
15.850000 -0.539098
15.900000 -0.672708
15.950000 -0.816595
16.000000 -0.998167
16.050000 -1.148907
16.100000 -1.237979
16.150000 -1.299645
16.200000 -1.357886
16.250000 -1.344183
16.300000 -1.255109
16.350000 -1.148906
16.400000 -1.046130
16.450000 -0.922797
16.500000 -0.789187
16.550000 -0.696688
16.600000 -0.686411
16.650000 -0.727522
16.700000 -0.778910
16.750000 -0.840577
16.800000 -0.926223
16.850000 -1.005018
16.900000 -1.046130
16.950000 -1.056408
17.000000 -1.029000
17.050000 -0.960482
17.100000 -0.847428
17.150000 -0.713818
17.200000 -0.583634
17.250000 -0.480858
17.300000 -0.402062
17.350000 -0.350674
17.400000 -0.357525
17.450000 -0.395210
17.500000 -0.443173
17.550000 -0.511690
17.600000 -0.617893
17.650000 -0.703540
17.700000 -0.754929
17.750000 -0.789188
17.800000 -0.820020
17.850000 -0.823446
17.900000 -0.796040
17.950000 -0.789188
18.000000 -0.820021
18.050000 -0.874835
18.100000 -0.919372
18.150000 -0.984464
18.200000 -1.087240
18.250000 -1.169462
18.300000 -1.200294
18.350000 -1.210572
18.400000 -1.224276
18.450000 -1.210573
18.500000 -1.148906
18.550000 -1.070111
18.600000 -0.987890
18.650000 -0.885113
18.700000 -0.806317
18.750000 -0.775485
18.800000 -0.775484
18.850000 -0.778910
18.900000 -0.820021
18.950000 -0.888539
19.000000 -0.933075
19.050000 -0.967334
19.100000 -1.011871
19.150000 -1.022148
19.200000 -0.977612
19.250000 -0.905668
19.300000 -0.796039
19.350000 -0.655578
19.400000 -0.549375
19.450000 -0.480857
19.500000 -0.405488
19.550000 -0.371229
19.600000 -0.443173
19.650000 -0.566505
19.700000 -0.713818
19.750000 -0.922797
19.800000 -1.176313
19.850000 -1.388719
19.900000 -1.553162
19.950000 -1.679919
20.000000 -1.745011
20.050000 -1.748437
20.100000 -1.686771
20.150000 -1.573716
20.200000 -1.446959
20.250000 -1.320201
20.300000 -1.166035
20.350000 -1.015297
20.400000 -0.929650
20.450000 -0.902242
20.500000 -0.895391
20.550000 -0.933075
20.600000 -1.001593
20.650000 -1.046130
20.700000 -1.066685
20.750000 -1.104370
20.800000 -1.131777
20.850000 -1.121499
20.900000 -1.070111
20.950000 -0.984463
21.000000 -0.885113
21.050000 -0.785762
21.100000 -0.665856
21.150000 -0.549375
21.200000 -0.480857
21.250000 -0.432895
21.300000 -0.378081
21.350000 -0.360951
21.400000 -0.395210
21.450000 -0.432896
21.500000 -0.484284
21.550000 -0.593912
21.600000 -0.713819
21.650000 -0.785762
21.700000 -0.837150
21.750000 -0.885113
21.800000 -0.898816
21.850000 -0.891964
21.900000 -0.902243
21.950000 -0.909094
22.000000 -0.881687
22.050000 -0.844002
22.100000 -0.823447
22.150000 -0.826873
22.200000 -0.874835
22.250000 -0.926223
22.300000 -0.957056
22.350000 -1.008444
22.400000 -1.087240
22.450000 -1.124925
22.500000 -1.100944
22.550000 -1.080388
22.600000 -1.056408
22.650000 -0.994741
22.700000 -0.888539
22.750000 -0.785762
22.800000 -0.686411
22.850000 -0.593912
22.900000 -0.518543
22.950000 -0.453451
23.000000 -0.405488
23.050000 -0.367803
23.100000 -0.367803
23.150000 -0.405488
23.200000 -0.467154
23.250000 -0.504838
23.300000 -0.542524
23.350000 -0.635022
23.400000 -0.765207
23.450000 -0.888539
23.500000 -1.018722
23.550000 -1.172887
23.600000 -1.337330
23.650000 -1.512050
23.700000 -1.655938
23.750000 -1.731308
23.800000 -1.758715
23.850000 -1.738159
23.900000 -1.638809
23.950000 -1.474366
24.000000 -1.285942
24.050000 -1.066685
24.100000 -0.802891
24.150000 -0.549375
24.200000 -0.340396
24.250000 -0.165676
24.300000 -0.032066
24.350000 0.019322
24.400000 -0.001233
24.450000 -0.059473
24.500000 -0.162250
24.550000 -0.302711
24.600000 -0.429469
24.650000 -0.532246
24.700000 -0.614468
24.750000 -0.672708
24.800000 -0.696689
24.850000 -0.693263
24.900000 -0.669282
24.950000 -0.631597
25.000000 -0.593912
25.050000 -0.569931
25.100000 -0.563079
25.150000 -0.573357
25.200000 -0.621319
25.250000 -0.676133
25.300000 -0.734374
25.350000 -0.806318
25.400000 -0.898816
25.450000 -0.974186
25.500000 -0.998167
25.550000 -0.994741
25.600000 -0.987889
25.650000 -0.970760
25.700000 -0.915945
25.750000 -0.861132
25.800000 -0.840576
25.850000 -0.823447
25.900000 -0.761781
25.950000 -0.706967
26.000000 -0.710392
26.050000 -0.727521
26.100000 -0.706967
26.150000 -0.686411
26.200000 -0.706967
26.250000 -0.720670
26.300000 -0.689837
26.350000 -0.655578
26.400000 -0.659004
26.450000 -0.665856
26.500000 -0.652152
26.550000 -0.652153
26.600000 -0.686411
26.650000 -0.713818
26.700000 -0.717244
26.750000 -0.734374
26.800000 -0.792614
26.850000 -0.847428
26.900000 -0.857705
26.950000 -0.864558
27.000000 -0.909094
27.050000 -0.929649
27.100000 -0.902242
27.150000 -0.891964
27.200000 -0.909094
27.250000 -0.902243
27.300000 -0.878261
27.350000 -0.878261
27.400000 -0.871409
27.450000 -0.816595
27.500000 -0.758354
27.550000 -0.748077
27.600000 -0.744651
27.650000 -0.724096
27.700000 -0.710392
27.750000 -0.717244
27.800000 -0.727522
27.850000 -0.744651
27.900000 -0.796040
27.950000 -0.871409
28.000000 -0.939927
28.050000 -0.970760
28.100000 -0.991315
28.150000 -1.018723
28.200000 -1.035852
28.250000 -1.025574
28.300000 -1.008444
28.350000 -1.005019
28.400000 -1.011870
28.450000 -1.029000
28.500000 -1.052981
28.550000 -1.080389
28.600000 -1.114648
28.650000 -1.155758
28.700000 -1.183165
28.750000 -1.183165
28.800000 -1.172887
28.850000 -1.159184
28.900000 -1.124925
28.950000 -1.073537
29.000000 -1.049555
29.050000 -1.035852
29.100000 -0.998167
29.150000 -0.991316
29.200000 -1.052982
29.250000 -1.131776
29.300000 -1.207146
29.350000 -1.306497
29.400000 -1.436681
29.450000 -1.536032
29.500000 -1.597698
29.550000 -1.645661
29.600000 -1.659364
29.650000 -1.621679
29.700000 -1.532606
29.750000 -1.409274
29.800000 -1.292794
29.850000 -1.172887
29.900000 -1.032426
29.950000 -0.926223
30.000000 -0.891964
30.050000 -0.867983
30.100000 -0.823447
30.150000 -0.833724
30.200000 -0.915945
30.250000 -0.963908
30.300000 -0.970760
30.350000 -1.008445
30.400000 -1.083815
30.450000 -1.121499
30.500000 -1.104369
30.550000 -1.087241
30.600000 -1.090666
30.650000 -1.076963
30.700000 -1.032426
30.750000 -1.011871
30.800000 -1.056407
30.850000 -1.128351
30.900000 -1.186591
30.950000 -1.265387
31.000000 -1.388719
31.050000 -1.498347
31.100000 -1.560013
31.150000 -1.607976
31.200000 -1.655938
31.250000 -1.662790
31.300000 -1.618253
31.350000 -1.542884
31.400000 -1.450385
31.450000 -1.330478
31.500000 -1.176313
31.550000 -1.018723
31.600000 -0.895391
31.650000 -0.813169
31.700000 -0.741226
31.750000 -0.706967
31.800000 -0.734374
31.850000 -0.799465
31.900000 -0.871409
31.950000 -0.977612
32.000000 -1.118073
32.050000 -1.234554
32.100000 -1.320201
32.150000 -1.392145
32.200000 -1.426404
32.250000 -1.392144
32.300000 -1.323627
32.350000 -1.255109
32.400000 -1.166036
32.450000 -1.066685
32.500000 -1.001593
32.550000 -0.981037
32.600000 -0.984463
32.650000 -0.987889
32.700000 -1.008444
32.750000 -1.090666
32.800000 -1.207147
32.850000 -1.303071
32.900000 -1.361312
32.950000 -1.419552
33.000000 -1.457237
33.050000 -1.422977
33.100000 -1.351034
33.150000 -1.285942
33.200000 -1.224275
33.250000 -1.138629
33.300000 -1.046129
33.350000 -0.963908
33.400000 -0.926224
33.450000 -0.922798
33.500000 -0.912520
33.550000 -0.881687
33.600000 -0.881687
33.650000 -0.902243
33.700000 -0.885112
33.750000 -0.844002
33.800000 -0.826873
33.850000 -0.837150
33.900000 -0.857705
33.950000 -0.902242
34.000000 -0.974186
34.050000 -1.076963
34.100000 -1.203720
34.150000 -1.354460
34.200000 -1.512051
34.250000 -1.673067
34.300000 -1.820381
34.350000 -1.926584
34.400000 -2.005379
34.450000 -2.060193
34.500000 -2.070471
34.550000 -2.032786
34.600000 -1.984824
34.650000 -1.916306
34.700000 -1.810103
34.750000 -1.693623
34.800000 -1.594272
34.850000 -1.481218
34.900000 -1.368163
34.950000 -1.289367
35.000000 -1.237980
35.050000 -1.159184
35.100000 -1.052982
35.150000 -0.991316
35.200000 -0.977612
35.250000 -0.946779
35.300000 -0.902242
35.350000 -0.895390
35.400000 -0.919372
35.450000 -0.926224
35.500000 -0.919372
35.550000 -0.936502
35.600000 -0.970761
35.650000 -1.001593
35.700000 -1.035852
35.750000 -1.080388
35.800000 -1.100944
35.850000 -1.070111
35.900000 -1.025574
35.950000 -1.001593
36.000000 -0.981038
36.050000 -0.926223
36.100000 -0.861131
36.150000 -0.847427
36.200000 -0.867983
36.250000 -0.881687
36.300000 -0.895390
36.350000 -0.957056
36.400000 -1.063260
36.450000 -1.183165
36.500000 -1.309923
36.550000 -1.443533
36.600000 -1.560013
36.650000 -1.645661
36.700000 -1.690197
36.750000 -1.697049
36.800000 -1.649086
36.850000 -1.525754
36.900000 -1.357885
36.950000 -1.203721
37.000000 -1.066685
37.050000 -0.909094
37.100000 -0.761781
37.150000 -0.693263
37.200000 -0.682985
37.250000 -0.676133
37.300000 -0.717244
37.350000 -0.854280
37.400000 -1.042704
37.450000 -1.210572
37.500000 -1.361311
37.550000 -1.512051
37.600000 -1.638809
37.650000 -1.707327
37.700000 -1.710752
37.750000 -1.679919
37.800000 -1.621679
37.850000 -1.501773
37.900000 -1.354460
37.950000 -1.207146
38.000000 -1.087240
38.050000 -0.977611
38.100000 -0.902243
38.150000 -0.888539
38.200000 -0.933076
38.250000 -0.994741
38.300000 -1.076963
38.350000 -1.196869
38.400000 -1.316775
38.450000 -1.388719
38.500000 -1.426404
38.550000 -1.453810
38.600000 -1.450385
38.650000 -1.392144
38.700000 -1.285942
38.750000 -1.155758
38.800000 -1.032426
38.850000 -0.902243
38.900000 -0.772058
38.950000 -0.672707
39.000000 -0.631597
39.050000 -0.624746
39.100000 -0.655578
39.150000 -0.754929
39.200000 -0.905668
39.250000 -1.035852
39.300000 -1.135203
39.350000 -1.248257
39.400000 -1.361311
39.450000 -1.436681
39.500000 -1.460663
39.550000 -1.426403
39.600000 -1.364737
39.650000 -1.279090
39.700000 -1.183165
39.750000 -1.073537
39.800000 -0.981037
39.850000 -0.933076
39.900000 -0.898816
