fit_time[ns] Functional_fit[mV] Thermal_fit[mV]
3.600000 37.484840 36.557348
3.650000 37.138746 35.889645
3.700000 36.771469 35.234056
3.750000 36.375853 34.590346
3.800000 35.945797 33.958284
3.850000 35.476389 33.337645
3.900000 34.964017 32.728209
3.950000 34.406440 32.129760
4.000000 33.802834 31.542088
4.050000 33.153791 30.964986
4.100000 32.461295 30.398251
4.150000 31.728652 29.841686
4.200000 30.960396 29.295096
4.250000 30.162167 28.758292
4.300000 29.340549 28.231087
4.350000 28.502905 27.713300
4.400000 27.657176 27.204753
4.450000 26.811683 26.705269
4.500000 25.974904 26.214679
4.550000 25.155269 25.732815
4.600000 24.360937 25.259513
4.650000 23.599597 24.794611
4.700000 22.878276 24.337953
4.750000 22.203162 23.889384
4.800000 21.579457 23.448752
4.850000 21.011247 23.015910
4.900000 20.501408 22.590712
4.950000 20.051537 22.173017
5.000000 19.661921 21.762684
5.050000 19.331531 21.359577
5.100000 19.058058 20.963562
5.150000 18.837975 20.574508
5.200000 18.666628 20.192287
5.250000 18.538358 19.816771
5.300000 18.446644 19.447838
5.350000 18.384271 19.085367
5.400000 18.343508 18.729238
5.450000 18.316300 18.379336
5.500000 18.294472 18.035546
5.550000 18.269924 17.697756
5.600000 18.234834 17.365856
5.650000 18.181841 17.039740
5.700000 18.104231 16.719301
5.750000 17.996087 16.404436
5.800000 17.852434 16.095044
5.850000 17.669349 15.791025
5.900000 17.444053 15.492281
5.950000 17.174964 15.198718
6.000000 16.861730 14.910241
6.050000 16.505224 14.626759
6.100000 16.107512 14.348180
6.150000 15.671791 14.074418
6.200000 15.202300 13.805383
6.250000 14.704204 13.540993
6.300000 14.183457 13.281163
6.350000 13.646647 13.025810
6.400000 13.100829 12.774856
6.450000 12.553337 12.528221
6.500000 12.011606 12.285827
6.550000 11.482978 12.047599
6.600000 10.974526 11.813463
6.650000 10.492870 11.583345
6.700000 10.044021 11.357173
6.750000 9.633231 11.134878
6.800000 9.264867 10.916389
6.850000 8.942305 10.701641
6.900000 8.667857 10.490566
6.950000 8.442714 10.283098
7.000000 8.266926 10.079175
7.050000 8.139405 9.878733
7.100000 8.057960 9.681710
7.150000 8.019358 9.488047
7.200000 8.019410 9.297683
7.250000 8.053079 9.110561
7.300000 8.114611 8.926624
7.350000 8.197680 8.745814
7.400000 8.295550 8.568078
7.450000 8.401242 8.393361
7.500000 8.507707 8.221611
7.550000 8.608004 8.052774
7.600000 8.695465 7.886800
7.650000 8.763861 7.723639
7.700000 8.807549 7.563242
7.750000 8.821611 7.405559
7.800000 8.801967 7.250545
7.850000 8.745469 7.098151
7.900000 8.649971 6.948333
7.950000 8.514376 6.801045
8.000000 8.338653 6.656243
8.050000 8.123831 6.513885
8.100000 7.871960 6.373927
8.150000 7.586059 6.236327
8.200000 7.270026 6.101046
8.250000 6.928540 5.968042
8.300000 6.566934 5.837276
8.350000 6.191058 5.708709
8.400000 5.807130 5.582303
8.450000 5.421579 5.458021
8.500000 5.040879 5.335826
8.550000 4.671393 5.215682
8.600000 4.319208 5.097553
8.650000 3.989992 4.981405
8.700000 3.688850 4.867204
8.750000 3.420202 4.754915
8.800000 3.187680 4.644507
8.850000 2.994039 4.535946
8.900000 2.841095 4.429201
8.950000 2.729686 4.324241
9.000000 2.659660 4.221034
9.050000 2.629880 4.119552
9.100000 2.638262 4.019764
9.150000 2.681833 3.921641
9.200000 2.756808 3.825154
9.250000 2.858691 3.730277
9.300000 2.982390 3.636980
9.350000 3.122347 3.545238
9.400000 3.272680 3.455023
9.450000 3.427328 3.366310
9.500000 3.580204 3.279073
9.550000 3.725346 3.193286
9.600000 3.857062 3.108925
9.650000 3.970069 3.025966
9.700000 4.059624 2.944384
9.750000 4.121630 2.864157
9.800000 4.152740 2.785261
9.850000 4.150429 2.707674
9.900000 4.113055 2.631373
9.950000 4.039888 2.556336
10.000000 3.931124 2.482543
10.050000 3.787872 2.409972
10.100000 3.612121 2.338602
10.150000 3.406680 2.268413
10.200000 3.175108 2.199384
10.250000 2.921614 2.131498
10.300000 2.650949 2.064733
10.350000 2.368288 1.999071
10.400000 2.079091 1.934493
10.450000 1.788970 1.870982
10.500000 1.503546 1.808518
10.550000 1.228310 1.747085
10.600000 0.968488 1.686665
10.650000 0.728909 1.627241
10.700000 0.513892 1.568796
10.750000 0.327138 1.511313
10.800000 0.171646 1.454777
10.850000 0.049642 1.399172
10.900000 -0.037475 1.344482
10.950000 -0.089157 1.290691
11.000000 -0.105717 1.237784
11.050000 -0.088316 1.185747
11.100000 -0.038927 1.134565
11.150000 0.039716 1.084224
11.200000 0.144195 1.034709
11.250000 0.270497 0.986007
11.300000 0.414112 0.938104
11.350000 0.570157 0.890987
11.400000 0.733493 0.844642
11.450000 0.898853 0.799057
11.500000 1.060982 0.754219
11.550000 1.214756 0.710115
11.600000 1.355317 0.666733
11.650000 1.478185 0.624062
11.700000 1.579371 0.582089
11.750000 1.655468 0.540802
11.800000 1.703734 0.500191
11.850000 1.722156 0.460244
11.900000 1.709490 0.420949
11.950000 1.665290 0.382296
12.000000 1.589913 0.344275
12.050000 1.484501 0.306875
12.100000 1.350952 0.270085
12.150000 1.191861 0.233895
12.200000 1.010455 0.198296
12.250000 0.810508 0.163277
12.300000 0.596239 0.128830
12.350000 0.372210 0.094943
12.400000 0.143204 0.061609
12.450000 -0.085892 0.028818
12.500000 -0.310208 -0.003439
12.550000 -0.525017 -0.035171
12.600000 -0.725846 -0.066387
12.650000 -0.908589 -0.097095
12.700000 -1.069607 -0.127304
12.750000 -1.205810 -0.157021
12.800000 -1.314738 -0.186255
12.850000 -1.394611 -0.215014
12.900000 -1.444370 -0.243306
12.950000 -1.463703 -0.271138
13.000000 -1.453041 -0.298518
13.050000 -1.413546 -0.325454
13.100000 -1.347077 -0.351953
13.150000 -1.256137 -0.378022
13.200000 -1.143810 -0.403668
13.250000 -1.013677 -0.428898
13.300000 -0.869725 -0.453720
13.350000 -0.716245 -0.478138
13.400000 -0.557726 -0.502162
13.450000 -0.398738 -0.525796
13.500000 -0.243821 -0.549047
13.550000 -0.097374 -0.571922
13.600000 0.036458 -0.594427
13.650000 0.153880 -0.616568
13.700000 0.251542 -0.638350
13.750000 0.326615 -0.659780
13.800000 0.376862 -0.680864
13.850000 0.400686 -0.701606
13.900000 0.397165 -0.722014
13.950000 0.366071 -0.742092
14.000000 0.307872 -0.761845
14.050000 0.223712 -0.781280
14.100000 0.115378 -0.800401
14.150000 -0.014744 -0.819213
14.200000 -0.163740 -0.837722
14.250000 -0.328238 -0.855932
14.300000 -0.504500 -0.873848
14.350000 -0.688515 -0.891475
14.400000 -0.876099 -0.908818
14.450000 -1.063003 -0.925882
14.500000 -1.245019 -0.942671
14.550000 -1.418083 -0.959189
14.600000 -1.578375 -0.975441
14.650000 -1.722413 -0.991432
14.700000 -1.847136 -1.007165
14.750000 -1.949979 -1.022644
14.800000 -2.028931 -1.037875
14.850000 -2.082583 -1.052861
14.900000 -2.110158 -1.067605
14.950000 -2.111524 -1.082113
15.000000 -2.087197 -1.096387
15.050000 -2.038320 -1.110432
15.100000 -1.966633 -1.124251
15.150000 -1.874421 -1.137848
15.200000 -1.764460 -1.151227
15.250000 -1.639939 -1.164391
15.300000 -1.504383 -1.177343
15.350000 -1.361559 -1.190088
15.400000 -1.215381 -1.202628
15.450000 -1.069815 -1.214967
15.500000 -0.928779 -1.227108
15.550000 -0.796044 -1.239054
15.600000 -0.675145 -1.250809
15.650000 -0.569292 -1.262375
15.700000 -0.481294 -1.273755
15.750000 -0.413493 -1.284954
15.800000 -0.367708 -1.295973
15.850000 -0.345193 -1.306815
15.900000 -0.346613 -1.317484
15.950000 -0.372028 -1.327982
16.000000 -0.420899 -1.338312
16.050000 -0.492104 -1.348476
16.100000 -0.583970 -1.358478
16.150000 -0.694318 -1.368320
16.200000 -0.820525 -1.378004
16.250000 -0.959585 -1.387534
16.300000 -1.108194 -1.396911
16.350000 -1.262829 -1.406138
16.400000 -1.419838 -1.415218
16.450000 -1.575534 -1.424152
16.500000 -1.726285 -1.432944
16.550000 -1.868602 -1.441596
16.600000 -1.999230 -1.450109
16.650000 -2.115222 -1.458486
16.700000 -2.214011 -1.466730
16.750000 -2.293474 -1.474842
16.800000 -2.351978 -1.482824
16.850000 -2.388419 -1.490679
16.900000 -2.402247 -1.498409
16.950000 -2.393472 -1.506016
17.000000 -2.362662 -1.513501
17.050000 -2.310926 -1.520867
17.100000 -2.239882 -1.528115
17.150000 -2.151612 -1.535248
17.200000 -2.048606 -1.542267
17.250000 -1.933703 -1.549174
17.300000 -1.810013 -1.555972
17.350000 -1.680836 -1.562661
17.400000 -1.549588 -1.569243
17.450000 -1.419703 -1.575721
17.500000 -1.294559 -1.582095
17.550000 -1.177388 -1.588369
17.600000 -1.071198 -1.594542
17.650000 -0.978701 -1.600617
17.700000 -0.902248 -1.606595
17.750000 -0.843770 -1.612479
17.800000 -0.804739 -1.618268
17.850000 -0.786130 -1.623966
17.900000 -0.788401 -1.629573
17.950000 -0.811488 -1.635091
18.000000 -0.854806 -1.640521
18.050000 -0.917273 -1.645865
18.100000 -0.997334 -1.651125
18.150000 -1.093008 -1.656300
18.200000 -1.201939 -1.661393
18.250000 -1.321454 -1.666406
18.300000 -1.448638 -1.671339
18.350000 -1.580401 -1.676193
18.400000 -1.713561 -1.680971
18.450000 -1.844922 -1.685673
18.500000 -1.971354 -1.690300
18.550000 -2.089868 -1.694854
18.600000 -2.197693 -1.699335
18.650000 -2.292341 -1.703745
18.700000 -2.371665 -1.708086
18.750000 -2.433913 -1.712358
18.800000 -2.477770 -1.716562
18.850000 -2.502382 -1.720699
18.900000 -2.507379 -1.724771
18.950000 -2.492878 -1.728778
19.000000 -2.459477 -1.732722
19.050000 -2.408239 -1.736603
19.100000 -2.340660 -1.740423
19.150000 -2.258629 -1.744182
19.200000 -2.164379 -1.747882
19.250000 -2.060428 -1.751523
19.300000 -1.949518 -1.755107
19.350000 -1.834541 -1.758634
19.400000 -1.718468 -1.762105
19.450000 -1.604273 -1.765521
19.500000 -1.494865 -1.768883
19.550000 -1.393009 -1.772192
19.600000 -1.301262 -1.775449
19.650000 -1.221911 -1.778654
19.700000 -1.156917 -1.781808
19.750000 -1.107871 -1.784913
19.800000 -1.075953 -1.787969
19.850000 -1.061910 -1.790976
19.900000 -1.066040 -1.793936
19.950000 -1.088183 -1.796849
20.000000 -1.127735 -1.799716
20.050000 -1.183661 -1.802537
20.100000 -1.254527 -1.805314
20.150000 -1.338537 -1.808048
20.200000 -1.433580 -1.810738
20.250000 -1.537285 -1.813386
20.300000 -1.647083 -1.815991
20.350000 -1.760269 -1.818556
20.400000 -1.874074 -1.821080
20.450000 -1.985731 -1.823565
20.500000 -2.092546 -1.826010
20.550000 -2.191963 -1.828417
20.600000 -2.281628 -1.830786
20.650000 -2.359441 -1.833117
20.700000 -2.423616 -1.835412
20.750000 -2.472712 -1.837670
20.800000 -2.505675 -1.839893
20.850000 -2.521858 -1.842081
20.900000 -2.521032 -1.844235
20.950000 -2.503393 -1.846354
21.000000 -2.469551 -1.848440
21.050000 -2.420514 -1.850493
21.100000 -2.357658 -1.852514
21.150000 -2.282694 -1.854503
21.200000 -2.197616 -1.856461
21.250000 -2.104660 -1.858388
21.300000 -2.006234 -1.860284
21.350000 -1.904871 -1.862151
21.400000 -1.803153 -1.863989
21.450000 -1.703653 -1.865797
21.500000 -1.608871 -1.867577
21.550000 -1.521171 -1.869329
21.600000 -1.442722 -1.871053
21.650000 -1.375450 -1.872751
21.700000 -1.320987 -1.874421
21.750000 -1.280635 -1.876066
21.800000 -1.255337 -1.877684
21.850000 -1.245655 -1.879277
21.900000 -1.251756 -1.880845
21.950000 -1.273416 -1.882389
22.000000 -1.310026 -1.883908
22.050000 -1.360608 -1.885403
22.100000 -1.423844 -1.886875
22.150000 -1.498111 -1.888324
22.200000 -1.581523 -1.889749
22.250000 -1.671980 -1.891153
22.300000 -1.767222 -1.892534
22.350000 -1.864884 -1.893894
22.400000 -1.962560 -1.895233
22.450000 -2.057857 -1.896550
22.500000 -2.148461 -1.897847
22.550000 -2.232187 -1.899123
22.600000 -2.307038 -1.900380
22.650000 -2.371250 -1.901616
22.700000 -2.423337 -1.902833
22.750000 -2.462123 -1.904032
22.800000 -2.486767 -1.905211
22.850000 -2.496790 -1.906372
22.900000 -2.492076 -1.907515
22.950000 -2.472875 -1.908639
23.000000 -2.439794 -1.909746
23.050000 -2.393782 -1.910836
23.100000 -2.336100 -1.911909
23.150000 -2.268289 -1.912965
23.200000 -2.192132 -1.914004
23.250000 -2.109604 -1.915027
23.300000 -2.022825 -1.916034
23.350000 -1.934004 -1.917025
23.400000 -1.845386 -1.918001
23.450000 -1.759193 -1.918961
23.500000 -1.677572 -1.919907
23.550000 -1.602539 -1.920837
23.600000 -1.535934 -1.921753
23.650000 -1.479372 -1.922655
23.700000 -1.434210 -1.923543
23.750000 -1.401508 -1.924416
23.800000 -1.382012 -1.925276
23.850000 -1.376133 -1.926123
23.900000 -1.383942 -1.926956
23.950000 -1.405167 -1.927776
24.000000 -1.439207 -1.928584
24.050000 -1.485146 -1.929379
24.100000 -1.541778 -1.930161
24.150000 -1.607642 -1.930931
24.200000 -1.681055 -1.931689
24.250000 -1.760160 -1.932435
24.300000 -1.842972 -1.933170
24.350000 -1.927428 -1.933893
24.400000 -2.011436 -1.934605
24.450000 -2.092933 -1.935305
24.500000 -2.169931 -1.935995
24.550000 -2.240568 -1.936674
24.600000 -2.303152 -1.937342
24.650000 -2.356205 -1.938000
24.700000 -2.398493 -1.938648
24.750000 -2.429059 -1.939285
24.800000 -2.447244 -1.939913
24.850000 -2.452701 -1.940531
24.900000 -2.445400 -1.941139
24.950000 -2.425628 -1.941737
25.000000 -2.393980 -1.942326
25.050000 -2.351341 -1.942906
25.100000 -2.298862 -1.943477
25.150000 -2.237930 -1.944040
25.200000 -2.170131 -1.944593
25.250000 -2.097212 -1.945137
25.300000 -2.021032 -1.945674
25.350000 -1.943520 -1.946201
25.400000 -1.866622 -1.946721
25.450000 -1.792255 -1.947232
25.500000 -1.722260 -1.947736
25.550000 -1.658357 -1.948232
25.600000 -1.602100 -1.948719
25.650000 -1.554844 -1.949200
25.700000 -1.517709 -1.949673
25.750000 -1.491558 -1.950138
25.800000 -1.476972 -1.950596
25.850000 -1.474243 -1.951047
25.900000 -1.483366 -1.951491
25.950000 -1.504041 -1.951928
26.000000 -1.535683 -1.952359
26.050000 -1.577439 -1.952782
26.100000 -1.628212 -1.953199
26.150000 -1.686687 -1.953610
26.200000 -1.751368 -1.954014
26.250000 -1.820615 -1.954411
26.300000 -1.892687 -1.954803
26.350000 -1.965785 -1.955189
26.400000 -2.038096 -1.955568
26.450000 -2.107840 -1.955942
26.500000 -2.173314 -1.956309
26.550000 -2.232932 -1.956671
26.600000 -2.285264 -1.957028
26.650000 -2.329073 -1.957379
26.700000 -2.363341 -1.957724
26.750000 -2.387292 -1.958064
26.800000 -2.400415 -1.958399
26.850000 -2.402470 -1.958728
26.900000 -2.393492 -1.959053
26.950000 -2.373791 -1.959372
27.000000 -2.343940 -1.959686
27.050000 -2.304761 -1.959996
27.100000 -2.257300 -1.960301
27.150000 -2.202801 -1.960601
27.200000 -2.142676 -1.960896
27.250000 -2.078464 -1.961187
27.300000 -2.011796 -1.961473
27.350000 -1.944351 -1.961754
27.400000 -1.877815 -1.962032
27.450000 -1.813842 -1.962305
27.500000 -1.754007 -1.962574
27.550000 -1.699773 -1.962838
27.600000 -1.652453 -1.963099
27.650000 -1.613179 -1.963355
27.700000 -1.582876 -1.963608
27.750000 -1.562237 -1.963856
27.800000 -1.551712 -1.964101
27.850000 -1.551497 -1.964342
27.900000 -1.561530 -1.964579
27.950000 -1.581495 -1.964812
28.000000 -1.610831 -1.965042
28.050000 -1.648748 -1.965268
28.100000 -1.694251 -1.965491
28.150000 -1.746161 -1.965710
28.200000 -1.803150 -1.965926
28.250000 -1.863771 -1.966139
28.300000 -1.926501 -1.966348
28.350000 -1.989771 -1.966554
28.400000 -2.052012 -1.966757
28.450000 -2.111693 -1.966956
28.500000 -2.167354 -1.967153
28.550000 -2.217647 -1.967346
28.600000 -2.261367 -1.967537
28.650000 -2.297480 -1.967724
28.700000 -2.325149 -1.967909
28.750000 -2.343752 -1.968091
28.800000 -2.352895 -1.968270
28.850000 -2.352424 -1.968446
28.900000 -2.342424 -1.968619
28.950000 -2.323213 -1.968790
29.000000 -2.295341 -1.968958
29.050000 -2.259563 -1.969124
29.100000 -2.216829 -1.969286
29.150000 -2.168253 -1.969447
29.200000 -2.115087 -1.969605
29.250000 -2.058686 -1.969760
29.300000 -2.000478 -1.969913
29.350000 -1.941925 -1.970064
29.400000 -1.884486 -1.970212
29.450000 -1.829583 -1.970358
29.500000 -1.778563 -1.970502
29.550000 -1.732671 -1.970644
29.600000 -1.693011 -1.970783
29.650000 -1.660528 -1.970920
29.700000 -1.635980 -1.971055
29.750000 -1.619923 -1.971188
29.800000 -1.612699 -1.971319
29.850000 -1.614428 -1.971448
29.900000 -1.625006 -1.971575
29.950000 -1.644110 -1.971700
30.000000 -1.671209 -1.971823
30.050000 -1.705577 -1.971944
30.100000 -1.746311 -1.972063
30.150000 -1.792358 -1.972181
30.200000 -1.842539 -1.972296
30.250000 -1.895584 -1.972410
30.300000 -1.950157 -1.972522
30.350000 -2.004896 -1.972632
30.400000 -2.058443 -1.972741
30.450000 -2.109480 -1.972848
30.500000 -2.156762 -1.972953
30.550000 -2.199143 -1.973057
30.600000 -2.235609 -1.973159
30.650000 -2.265300 -1.973259
30.700000 -2.287529 -1.973358
30.750000 -2.301801 -1.973455
30.800000 -2.307819 -1.973551
30.850000 -2.305496 -1.973645
30.900000 -2.294951 -1.973738
30.950000 -2.276507 -1.973830
31.000000 -2.250679 -1.973920
31.050000 -2.218165 -1.974008
31.100000 -2.179821 -1.974096
31.150000 -2.136642 -1.974182
31.200000 -2.089737 -1.974266
31.250000 -2.040300 -1.974350
31.300000 -1.989576 -1.974432
31.350000 -1.938837 -1.974512
31.400000 -1.889344 -1.974592
31.450000 -1.842318 -1.974670
31.500000 -1.798913 -1.974747
31.550000 -1.760181 -1.974823
31.600000 -1.727052 -1.974898
31.650000 -1.700310 -1.974971
31.700000 -1.680577 -1.975044
31.750000 -1.668293 -1.975115
31.800000 -1.663712 -1.975185
31.850000 -1.666895 -1.975254
31.900000 -1.677710 -1.975322
31.950000 -1.695834 -1.975389
32.000000 -1.720769 -1.975455
32.050000 -1.751847 -1.975520
32.100000 -1.788256 -1.975584
32.150000 -1.829056 -1.975647
32.200000 -1.873203 -1.975709
32.250000 -1.919580 -1.975770
32.300000 -1.967021 -1.975830
32.350000 -2.014343 -1.975889
32.400000 -2.060372 -1.975947
32.450000 -2.103978 -1.976005
32.500000 -2.144096 -1.976061
32.550000 -2.179756 -1.976117
32.600000 -2.210107 -1.976171
32.650000 -2.234435 -1.976225
32.700000 -2.252179 -1.976278
32.750000 -2.262948 -1.976331
32.800000 -2.266524 -1.976382
32.850000 -2.262873 -1.976433
32.900000 -2.252136 -1.976482
32.950000 -2.234633 -1.976531
33.000000 -2.210848 -1.976580
33.050000 -2.181415 -1.976627
33.100000 -2.147109 -1.976674
33.150000 -2.108815 -1.976720
33.200000 -2.067515 -1.976766
33.250000 -2.024256 -1.976810
33.300000 -1.980127 -1.976854
33.350000 -1.936230 -1.976898
33.400000 -1.893655 -1.976940
33.450000 -1.853450 -1.976982
33.500000 -1.816598 -1.977024
33.550000 -1.783990 -1.977065
33.600000 -1.756406 -1.977105
33.650000 -1.734497 -1.977144
33.700000 -1.718768 -1.977183
33.750000 -1.709564 -1.977221
33.800000 -1.707070 -1.977259
33.850000 -1.711301 -1.977296
33.900000 -1.722103 -1.977333
33.950000 -1.739165 -1.977369
34.000000 -1.762017 -1.977404
34.050000 -1.790054 -1.977439
34.100000 -1.822541 -1.977473
34.150000 -1.858644 -1.977507
34.200000 -1.897439 -1.977540
34.250000 -1.937946 -1.977573
34.300000 -1.979149 -1.977605
34.350000 -2.020019 -1.977637
34.400000 -2.059546 -1.977668
34.450000 -2.096759 -1.977699
34.500000 -2.130751 -1.977729
34.550000 -2.160702 -1.977759
34.600000 -2.185899 -1.977789
34.650000 -2.205750 -1.977818
34.700000 -2.219801 -1.977846
34.750000 -2.227746 -1.977874
34.800000 -2.229431 -1.977902
34.850000 -2.224861 -1.977929
34.900000 -2.214192 -1.977956
34.950000 -2.197736 -1.977982
35.000000 -2.175941 -1.978008
35.050000 -2.149388 -1.978034
35.100000 -2.118771 -1.978059
35.150000 -2.084878 -1.978084
35.200000 -2.048575 -1.978108
35.250000 -2.010781 -1.978132
35.300000 -1.972446 -1.978156
35.350000 -1.934525 -1.978179
35.400000 -1.897958 -1.978202
35.450000 -1.863642 -1.978225
35.500000 -1.832416 -1.978247
35.550000 -1.805031 -1.978269
35.600000 -1.782142 -1.978290
35.650000 -1.764284 -1.978311
35.700000 -1.751866 -1.978332
35.750000 -1.745159 -1.978353
35.800000 -1.744287 -1.978373
35.850000 -1.749233 -1.978393
35.900000 -1.759831 -1.978413
35.950000 -1.775780 -1.978432
36.000000 -1.796645 -1.978451
36.050000 -1.821875 -1.978470
36.100000 -1.850813 -1.978488
36.150000 -1.882713 -1.978507
36.200000 -1.916764 -1.978524
36.250000 -1.952106 -1.978542
36.300000 -1.987852 -1.978559
36.350000 -2.023113 -1.978577
36.400000 -2.057017 -1.978593
36.450000 -2.088733 -1.978610
36.500000 -2.117489 -1.978626
36.550000 -2.142593 -1.978642
36.600000 -2.163449 -1.978658
36.650000 -2.179568 -1.978674
36.700000 -2.190586 -1.978689
36.750000 -2.196266 -1.978704
36.800000 -2.196504 -1.978719
36.850000 -2.191334 -1.978734
36.900000 -2.180923 -1.978748
36.950000 -2.165568 -1.978762
37.000000 -2.145685 -1.978776
37.050000 -2.121800 -1.978790
37.100000 -2.094535 -1.978804
37.150000 -2.064591 -1.978817
37.200000 -2.032731 -1.978830
37.250000 -1.999760 -1.978843
37.300000 -1.966504 -1.978856
37.350000 -1.933792 -1.978868
