fit_time[ns] Functional_fit[mV] Thermal_fit[mV]
3.600000 38.657092 37.971113
3.650000 38.309542 37.292024
3.700000 37.946003 36.625070
3.750000 37.558688 35.970019
3.800000 37.140774 35.326643
3.850000 36.686563 34.694720
3.900000 36.191617 34.074031
3.950000 35.652856 33.464364
4.000000 35.068620 32.865510
4.050000 34.438701 32.277263
4.100000 33.764329 31.699424
4.150000 33.048130 31.131797
4.200000 32.294042 30.574189
4.250000 31.507202 30.026412
4.300000 30.693801 29.488281
4.350000 29.860919 28.959617
4.400000 29.016327 28.440243
4.450000 28.168284 27.929984
4.500000 27.325320 27.428673
4.550000 26.496008 26.936141
4.600000 25.688743 26.452226
4.650000 24.911527 25.976769
4.700000 24.171758 25.509613
4.750000 23.476046 25.050605
4.800000 22.830043 24.599595
4.850000 22.238303 24.156435
4.900000 21.704168 23.720981
4.950000 21.229687 23.293091
5.000000 20.815570 22.872627
5.050000 20.461171 22.459454
5.100000 20.164515 22.053437
5.150000 19.922351 21.654446
5.200000 19.730241 21.262354
5.250000 19.582675 20.877035
5.300000 19.473219 20.498365
5.350000 19.394679 20.126223
5.400000 19.339288 19.760493
5.450000 19.298905 19.401057
5.500000 19.265221 19.047803
5.550000 19.229969 18.700617
5.600000 19.185134 18.359392
5.650000 19.123149 18.024019
5.700000 19.037086 17.694393
5.750000 18.920826 17.370412
5.800000 18.769202 17.051974
5.850000 18.578128 16.738980
5.900000 18.344691 16.431331
5.950000 18.067214 16.128934
6.000000 17.745290 15.831694
6.050000 17.379783 15.539519
6.100000 16.972789 15.252319
6.150000 16.527581 14.970005
6.200000 16.048509 14.692491
6.250000 15.540882 14.419692
6.300000 15.010824 14.151523
6.350000 14.465110 13.887904
6.400000 13.910987 13.628753
6.450000 13.355985 13.373992
6.500000 12.807719 13.123542
6.550000 12.273694 12.877329
6.600000 11.761111 12.635277
6.650000 11.276684 12.397314
6.700000 10.826471 12.163367
6.750000 10.415719 11.933366
6.800000 10.048738 11.707241
6.850000 9.728792 11.484926
6.900000 9.458022 11.266352
6.950000 9.237395 11.051456
7.000000 9.066691 10.840171
7.050000 8.944507 10.632436
7.100000 8.868306 10.428189
7.150000 8.834482 10.227368
7.200000 8.838462 10.029915
7.250000 8.874823 9.835770
7.300000 8.937438 9.644876
7.350000 9.019634 9.457177
7.400000 9.114364 9.272617
7.450000 9.214387 9.091142
7.500000 9.312457 8.912699
7.550000 9.401499 8.737235
7.600000 9.474795 8.564698
7.650000 9.526144 8.395038
7.700000 9.550023 8.228206
7.750000 9.541717 8.064153
7.800000 9.497434 7.902830
7.850000 9.414394 7.744191
7.900000 9.290895 7.588190
7.950000 9.126344 7.434781
8.000000 8.921266 7.283920
8.050000 8.677282 7.135563
8.100000 8.397061 6.989668
8.150000 8.084238 6.846192
8.200000 7.743322 6.705093
8.250000 7.379568 6.566332
8.300000 6.998840 6.429867
8.350000 6.607455 6.295661
8.400000 6.212019 6.163674
8.450000 5.819256 6.033869
8.500000 5.435832 5.906208
8.550000 5.068188 5.780654
8.600000 4.722373 5.657173
8.650000 4.403894 5.535729
8.700000 4.117577 5.416287
8.750000 3.867446 5.298814
8.800000 3.656630 5.183275
8.850000 3.487280 5.069638
8.900000 3.360526 4.957871
8.950000 3.276452 4.847943
9.000000 3.234101 4.739821
9.050000 3.231504 4.633476
9.100000 3.265734 4.528878
9.150000 3.332993 4.425996
9.200000 3.428707 4.324803
9.250000 3.547648 4.225269
9.300000 3.684077 4.127367
9.350000 3.831883 4.031070
9.400000 3.984750 3.936349
9.450000 4.136312 3.843179
9.500000 4.280321 3.751534
9.550000 4.410799 3.661388
9.600000 4.522192 3.572715
9.650000 4.609505 3.485492
9.700000 4.668431 3.399694
9.750000 4.695449 3.315296
9.800000 4.687910 3.232276
9.850000 4.644103 3.150611
9.900000 4.563285 3.070277
9.950000 4.445697 2.991253
10.000000 4.292549 2.913517
10.050000 4.105986 2.837046
10.100000 3.889020 2.761821
10.150000 3.645454 2.687820
10.200000 3.379775 2.615023
10.250000 3.097035 2.543409
10.300000 2.802719 2.472960
10.350000 2.502602 2.403655
10.400000 2.202596 2.335476
10.450000 1.908604 2.268404
10.500000 1.626363 2.202421
10.550000 1.361301 2.137508
10.600000 1.118401 2.073648
10.650000 0.902073 2.010823
10.700000 0.716050 1.949016
10.750000 0.563290 1.888210
10.800000 0.445912 1.828389
10.850000 0.365142 1.769536
10.900000 0.321291 1.711636
10.950000 0.313748 1.654672
11.000000 0.341007 1.598630
11.050000 0.400705 1.543493
11.100000 0.489692 1.489247
11.150000 0.604114 1.435877
11.200000 0.739516 1.383369
11.250000 0.890959 1.331709
11.300000 1.053149 1.280882
11.350000 1.220574 1.230875
11.400000 1.387645 1.181674
11.450000 1.548840 1.133267
11.500000 1.698844 1.085639
11.550000 1.832680 1.038779
11.600000 1.945838 0.992673
11.650000 2.034383 0.947309
11.700000 2.095053 0.902675
11.750000 2.125338 0.858760
11.800000 2.123536 0.815550
11.850000 2.088795 0.773036
11.900000 2.021124 0.731204
11.950000 1.921392 0.690045
12.000000 1.791296 0.649546
12.050000 1.633313 0.609698
12.100000 1.450633 0.570490
12.150000 1.247071 0.531910
12.200000 1.026965 0.493950
12.250000 0.795064 0.456598
12.300000 0.556402 0.419845
12.350000 0.316166 0.383681
12.400000 0.079568 0.348096
12.450000 -0.148296 0.313082
12.500000 -0.362569 0.278628
12.550000 -0.558758 0.244725
12.600000 -0.732848 0.211365
12.650000 -0.881399 0.178539
12.700000 -1.001631 0.146238
12.750000 -1.091493 0.114453
12.800000 -1.149705 0.083176
12.850000 -1.175794 0.052399
12.900000 -1.170094 0.022113
12.950000 -1.133736 -0.007688
13.000000 -1.068612 -0.037014
13.050000 -0.977325 -0.065872
13.100000 -0.863115 -0.094270
13.150000 -0.729773 -0.122214
13.200000 -0.581544 -0.149713
13.250000 -0.423012 -0.176773
13.300000 -0.258982 -0.203402
13.350000 -0.094357 -0.229607
13.400000 0.065986 -0.255394
13.450000 0.217325 -0.280771
13.500000 0.355206 -0.305743
13.550000 0.475560 -0.330318
13.600000 0.574801 -0.354502
13.650000 0.649914 -0.378302
13.700000 0.698532 -0.401722
13.750000 0.718986 -0.424770
13.800000 0.710348 -0.447452
13.850000 0.672445 -0.469774
13.900000 0.605864 -0.491740
13.950000 0.511927 -0.513358
14.000000 0.392654 -0.534633
14.050000 0.250708 -0.555569
14.100000 0.089319 -0.576174
14.150000 -0.087796 -0.596451
14.200000 -0.276538 -0.616407
14.250000 -0.472528 -0.636046
14.300000 -0.671224 -0.655374
14.350000 -0.868035 -0.674395
14.400000 -1.058442 -0.693115
14.450000 -1.238110 -0.711539
14.500000 -1.403000 -0.729670
14.550000 -1.549468 -0.747514
14.600000 -1.674355 -0.765076
14.650000 -1.775069 -0.782360
14.700000 -1.849642 -0.799370
14.750000 -1.896779 -0.816111
14.800000 -1.915887 -0.832587
14.850000 -1.907086 -0.848802
14.900000 -1.871197 -0.864761
14.950000 -1.809724 -0.880468
15.000000 -1.724805 -0.895927
15.050000 -1.619156 -0.911141
15.100000 -1.495998 -0.926115
15.150000 -1.358970 -0.940853
15.200000 -1.212038 -0.955357
15.250000 -1.059387 -0.969633
15.300000 -0.905312 -0.983683
15.350000 -0.754116 -0.997512
15.400000 -0.609989 -1.011123
15.450000 -0.476912 -1.024518
15.500000 -0.358550 -1.037703
15.550000 -0.258164 -1.050680
15.600000 -0.178531 -1.063452
15.650000 -0.121873 -1.076023
15.700000 -0.089808 -1.088395
15.750000 -0.083310 -1.100573
15.800000 -0.102690 -1.112559
15.850000 -0.147593 -1.124357
15.900000 -0.217008 -1.135968
15.950000 -0.309302 -1.147397
16.000000 -0.422265 -1.158646
16.050000 -0.553168 -1.169718
16.100000 -0.698840 -1.180615
16.150000 -0.855747 -1.191342
16.200000 -1.020089 -1.201899
16.250000 -1.187897 -1.212291
16.300000 -1.355133 -1.222520
16.350000 -1.517798 -1.232587
16.400000 -1.672032 -1.242497
16.450000 -1.814210 -1.252250
16.500000 -1.941033 -1.261851
16.550000 -2.049614 -1.271301
16.600000 -2.137546 -1.280602
16.650000 -2.202959 -1.289758
16.700000 -2.244566 -1.298769
16.750000 -2.261694 -1.307640
16.800000 -2.254293 -1.316371
16.850000 -2.222937 -1.324965
16.900000 -2.168803 -1.333425
16.950000 -2.093637 -1.341752
17.000000 -1.999708 -1.349948
17.050000 -1.889745 -1.358016
17.100000 -1.766865 -1.365957
17.150000 -1.634491 -1.373774
17.200000 -1.496262 -1.381469
17.250000 -1.355938 -1.389043
17.300000 -1.217309 -1.396498
17.350000 -1.084089 -1.403837
17.400000 -0.959830 -1.411061
17.450000 -0.847828 -1.418172
17.500000 -0.751042 -1.425171
17.550000 -0.672021 -1.432061
17.600000 -0.612841 -1.438843
17.650000 -0.575056 -1.445520
17.700000 -0.559661 -1.452091
17.750000 -0.567071 -1.458560
17.800000 -0.597113 -1.464928
17.850000 -0.649036 -1.471197
17.900000 -0.721533 -1.477367
17.950000 -0.812780 -1.483441
18.000000 -0.920481 -1.489420
18.050000 -1.041936 -1.495306
18.100000 -1.174106 -1.501100
18.150000 -1.313700 -1.506803
18.200000 -1.457254 -1.512418
18.250000 -1.601226 -1.517945
18.300000 -1.742080 -1.523385
18.350000 -1.876386 -1.528741
18.400000 -2.000896 -1.534013
18.450000 -2.112635 -1.539203
18.500000 -2.208969 -1.544312
18.550000 -2.287673 -1.549341
18.600000 -2.346983 -1.554292
18.650000 -2.385641 -1.559165
18.700000 -2.402921 -1.563963
18.750000 -2.398644 -1.568686
18.800000 -2.373183 -1.573335
18.850000 -2.327444 -1.577912
18.900000 -2.262845 -1.582418
18.950000 -2.181271 -1.586854
19.000000 -2.085030 -1.591220
19.050000 -1.976782 -1.595519
19.100000 -1.859480 -1.599750
19.150000 -1.736281 -1.603916
19.200000 -1.610476 -1.608017
19.250000 -1.485393 -1.612054
19.300000 -1.364324 -1.616028
19.350000 -1.250431 -1.619941
19.400000 -1.146673 -1.623792
19.450000 -1.055730 -1.627584
19.500000 -0.979935 -1.631317
19.550000 -0.921216 -1.634992
19.600000 -0.881056 -1.638609
19.650000 -0.860449 -1.642171
19.700000 -0.859885 -1.645677
19.750000 -0.879336 -1.649129
19.800000 -0.918264 -1.652527
19.850000 -0.975637 -1.655872
19.900000 -1.049955 -1.659165
19.950000 -1.139296 -1.662407
20.000000 -1.241367 -1.665599
20.050000 -1.353562 -1.668742
20.100000 -1.473035 -1.671835
20.150000 -1.596769 -1.674881
20.200000 -1.721658 -1.677879
20.250000 -1.844586 -1.680831
20.300000 -1.962507 -1.683737
20.350000 -2.072519 -1.686598
20.400000 -2.171942 -1.689414
20.450000 -2.258381 -1.692187
20.500000 -2.329787 -1.694917
20.550000 -2.384508 -1.697605
20.600000 -2.421325 -1.700251
20.650000 -2.439485 -1.702856
20.700000 -2.438714 -1.705420
20.750000 -2.419220 -1.707945
20.800000 -2.381688 -1.710431
20.850000 -2.327257 -1.712878
20.900000 -2.257490 -1.715287
20.950000 -2.174327 -1.717659
21.000000 -2.080039 -1.719995
21.050000 -1.977163 -1.722294
21.100000 -1.868439 -1.724558
21.150000 -1.756736 -1.726786
21.200000 -1.644980 -1.728980
21.250000 -1.536079 -1.731140
21.300000 -1.432846 -1.733267
21.350000 -1.337933 -1.735361
21.400000 -1.253759 -1.737422
21.450000 -1.182455 -1.739452
21.500000 -1.125807 -1.741450
21.550000 -1.085216 -1.743418
21.600000 -1.061661 -1.745354
21.650000 -1.055683 -1.747261
21.700000 -1.067367 -1.749139
21.750000 -1.096348 -1.750987
21.800000 -1.141822 -1.752807
21.850000 -1.202566 -1.754599
21.900000 -1.276978 -1.756363
21.950000 -1.363115 -1.758100
22.000000 -1.458748 -1.759810
22.050000 -1.561419 -1.761494
22.100000 -1.668507 -1.763152
22.150000 -1.777293 -1.764784
22.200000 -1.885035 -1.766391
22.250000 -1.989030 -1.767973
22.300000 -2.086692 -1.769530
22.350000 -2.175612 -1.771064
22.400000 -2.253617 -1.772574
22.450000 -2.318828 -1.774061
22.500000 -2.369703 -1.775525
22.550000 -2.405077 -1.776966
22.600000 -2.424185 -1.778385
22.650000 -2.426682 -1.779782
22.700000 -2.412650 -1.781157
22.750000 -2.382590 -1.782512
22.800000 -2.337408 -1.783845
22.850000 -2.278390 -1.785158
22.900000 -2.207165 -1.786451
22.950000 -2.125664 -1.787724
23.000000 -2.036065 -1.788977
23.050000 -1.940738 -1.790211
23.100000 -1.842184 -1.791426
23.150000 -1.742971 -1.792622
23.200000 -1.645662 -1.793800
23.250000 -1.552758 -1.794959
23.300000 -1.466629 -1.796101
23.350000 -1.389459 -1.797225
23.400000 -1.323184 -1.798332
23.450000 -1.269453 -1.799422
23.500000 -1.229582 -1.800495
23.550000 -1.204525 -1.801551
23.600000 -1.194851 -1.802592
23.650000 -1.200733 -1.803616
23.700000 -1.221946 -1.804625
23.750000 -1.257874 -1.805618
23.800000 -1.307529 -1.806595
23.850000 -1.369581 -1.807558
23.900000 -1.442389 -1.808506
23.950000 -1.524052 -1.809439
24.000000 -1.612452 -1.810358
24.050000 -1.705313 -1.811263
24.100000 -1.800261 -1.812154
24.150000 -1.894883 -1.813032
24.200000 -1.986790 -1.813895
24.250000 -2.073679 -1.814746
24.300000 -2.153386 -1.815583
24.350000 -2.223948 -1.816408
24.400000 -2.283646 -1.817220
24.450000 -2.331049 -1.818019
24.500000 -2.365048 -1.818807
24.550000 -2.384885 -1.819582
24.600000 -2.390166 -1.820345
24.650000 -2.380870 -1.821096
24.700000 -2.357351 -1.821836
24.750000 -2.320319 -1.822565
24.800000 -2.270827 -1.823282
24.850000 -2.210236 -1.823989
24.900000 -2.140184 -1.824684
24.950000 -2.062536 -1.825369
25.000000 -1.979341 -1.826044
25.050000 -1.892774 -1.826708
25.100000 -1.805083 -1.827361
25.150000 -1.718528 -1.828005
25.200000 -1.635326 -1.828639
25.250000 -1.557594 -1.829264
25.300000 -1.487295 -1.829878
25.350000 -1.426188 -1.830483
25.400000 -1.375789 -1.831079
25.450000 -1.337328 -1.831666
25.500000 -1.311722 -1.832244
25.550000 -1.299556 -1.832813
25.600000 -1.301067 -1.833373
25.650000 -1.316141 -1.833925
25.700000 -1.344318 -1.834468
25.750000 -1.384809 -1.835003
25.800000 -1.436514 -1.835530
25.850000 -1.498053 -1.836049
25.900000 -1.567807 -1.836559
25.950000 -1.643955 -1.837062
26.000000 -1.724526 -1.837557
26.050000 -1.807448 -1.838045
26.100000 -1.890604 -1.838525
26.150000 -1.971883 -1.838998
26.200000 -2.049237 -1.839463
26.250000 -2.120730 -1.839922
26.300000 -2.184588 -1.840373
26.350000 -2.239244 -1.840818
26.400000 -2.283376 -1.841255
26.450000 -2.315938 -1.841686
26.500000 -2.336186 -1.842111
26.550000 -2.343695 -1.842529
26.600000 -2.338368 -1.842940
26.650000 -2.320435 -1.843346
26.700000 -2.290447 -1.843745
26.750000 -2.249257 -1.844138
26.800000 -2.198000 -1.844524
26.850000 -2.138058 -1.844905
26.900000 -2.071028 -1.845281
26.950000 -1.998675 -1.845650
27.000000 -1.922889 -1.846014
27.050000 -1.845635 -1.846372
27.100000 -1.768901 -1.846725
27.150000 -1.694652 -1.847072
27.200000 -1.624774 -1.847414
27.250000 -1.561029 -1.847751
27.300000 -1.505012 -1.848083
27.350000 -1.458109 -1.848410
27.400000 -1.421466 -1.848731
27.450000 -1.395958 -1.849048
27.500000 -1.382171 -1.849360
27.550000 -1.380389 -1.849667
27.600000 -1.390586 -1.849969
27.650000 -1.412431 -1.850267
27.700000 -1.445299 -1.850561
27.750000 -1.488286 -1.850849
27.800000 -1.540238 -1.851134
27.850000 -1.599777 -1.851414
27.900000 -1.665343 -1.851690
27.950000 -1.735231 -1.851961
28.000000 -1.807636 -1.852229
28.050000 -1.880703 -1.852492
28.100000 -1.952570 -1.852751
28.150000 -2.021418 -1.853007
28.200000 -2.085517 -1.853258
28.250000 -2.143271 -1.853506
28.300000 -2.193253 -1.853750
28.350000 -2.234247 -1.853990
28.400000 -2.265270 -1.854226
28.450000 -2.285604 -1.854459
28.500000 -2.294806 -1.854689
28.550000 -2.292719 -1.854914
28.600000 -2.279476 -1.855137
28.650000 -2.255494 -1.855356
28.700000 -2.221461 -1.855571
28.750000 -2.178316 -1.855784
28.800000 -2.127224 -1.855993
28.850000 -2.069546 -1.856199
28.900000 -2.006802 -1.856402
28.950000 -1.940631 -1.856601
29.000000 -1.872747 -1.856798
29.050000 -1.804899 -1.856992
29.100000 -1.738822 -1.857183
29.150000 -1.676195 -1.857370
29.200000 -1.618598 -1.857555
29.250000 -1.567470 -1.857737
29.300000 -1.524080 -1.857917
29.350000 -1.489488 -1.858094
29.400000 -1.464522 -1.858267
29.450000 -1.449762 -1.858439
29.500000 -1.445521 -1.858608
29.550000 -1.451844 -1.858774
29.600000 -1.468503 -1.858937
29.650000 -1.495011 -1.859098
29.700000 -1.530630 -1.859257
29.750000 -1.574398 -1.859413
29.800000 -1.625148 -1.859567
29.850000 -1.681544 -1.859719
29.900000 -1.742115 -1.859868
29.950000 -1.805291 -1.860015
30.000000 -1.869449 -1.860160
30.050000 -1.932948 -1.860302
30.100000 -1.994178 -1.860442
30.150000 -2.051595 -1.860581
30.200000 -2.103762 -1.860717
30.250000 -2.149388 -1.860851
30.300000 -2.187354 -1.860983
30.350000 -2.216745 -1.861113
30.400000 -2.236872 -1.861241
30.450000 -2.247284 -1.861367
30.500000 -2.247784 -1.861491
30.550000 -2.238426 -1.861613
30.600000 -2.219516 -1.861734
30.650000 -2.191603 -1.861852
30.700000 -2.155461 -1.861969
30.750000 -2.112068 -1.862084
30.800000 -2.062581 -1.862197
30.850000 -2.008306 -1.862309
30.900000 -1.950661 -1.862419
30.950000 -1.891142 -1.862527
31.000000 -1.831281 -1.862633
31.050000 -1.772611 -1.862738
31.100000 -1.716622 -1.862842
31.150000 -1.664729 -1.862943
31.200000 -1.618231 -1.863044
31.250000 -1.578280 -1.863142
31.300000 -1.545856 -1.863240
31.350000 -1.521739 -1.863335
31.400000 -1.506492 -1.863430
31.450000 -1.500449 -1.863522
31.500000 -1.503706 -1.863614
31.550000 -1.516120 -1.863704
31.600000 -1.537319 -1.863792
31.650000 -1.566706 -1.863880
31.700000 -1.603480 -1.863966
31.750000 -1.646657 -1.864050
31.800000 -1.695095 -1.864134
31.850000 -1.747528 -1.864216
31.900000 -1.802594 -1.864297
31.950000 -1.858872 -1.864377
32.000000 -1.914922 -1.864455
32.050000 -1.969316 -1.864532
32.100000 -2.020682 -1.864608
32.150000 -2.067730 -1.864683
32.200000 -2.109290 -1.864757
32.250000 -2.144340 -1.864830
32.300000 -2.172030 -1.864901
32.350000 -2.191705 -1.864972
32.400000 -2.202916 -1.865041
32.450000 -2.205435 -1.865110
32.500000 -2.199256 -1.865177
32.550000 -2.184595 -1.865243
32.600000 -2.161884 -1.865309
32.650000 -2.131756 -1.865373
32.700000 -2.095030 -1.865436
32.750000 -2.052687 -1.865499
32.800000 -2.005846 -1.865560
32.850000 -1.955733 -1.865621
32.900000 -1.903649 -1.865680
32.950000 -1.850936 -1.865739
33.000000 -1.798945 -1.865797
33.050000 -1.749000 -1.865854
33.100000 -1.702361 -1.865910
33.150000 -1.660199 -1.865965
33.200000 -1.623561 -1.866019
33.250000 -1.593346 -1.866073
33.300000 -1.570285 -1.866126
33.350000 -1.554921 -1.866178
33.400000 -1.547597 -1.866229
33.450000 -1.548447 -1.866279
33.500000 -1.557398 -1.866329
33.550000 -1.574171 -1.866378
33.600000 -1.598286 -1.866426
33.650000 -1.629083 -1.866473
33.700000 -1.665734 -1.866520
33.750000 -1.707265 -1.866566
33.800000 -1.752588 -1.866611
33.850000 -1.800522 -1.866656
33.900000 -1.849829 -1.866699
33.950000 -1.899244 -1.866743
34.000000 -1.947505 -1.866785
34.050000 -1.993392 -1.866827
34.100000 -2.035749 -1.866869
34.150000 -2.073522 -1.866909
34.200000 -2.105776 -1.866949
34.250000 -2.131728 -1.866989
34.300000 -2.150756 -1.867028
34.350000 -2.162422 -1.867066
34.400000 -2.166478 -1.867104
34.450000 -2.162871 -1.867141
34.500000 -2.151744 -1.867177
34.550000 -2.133430 -1.867213
34.600000 -2.108446 -1.867249
34.650000 -2.077473 -1.867284
34.700000 -2.041340 -1.867318
34.750000 -2.001005 -1.867352
34.800000 -1.957524 -1.867386
34.850000 -1.912029 -1.867418
34.900000 -1.865693 -1.867451
34.950000 -1.819704 -1.867483
35.000000 -1.775235 -1.867514
35.050000 -1.733411 -1.867545
35.100000 -1.695281 -1.867576
35.150000 -1.661796 -1.867606
35.200000 -1.633779 -1.867635
35.250000 -1.611910 -1.867664
35.300000 -1.596707 -1.867693
35.350000 -1.588516 -1.867721
35.400000 -1.587500 -1.867749
35.450000 -1.593639 -1.867776
35.500000 -1.606730 -1.867803
35.550000 -1.626395 -1.867830
35.600000 -1.652089 -1.867856
35.650000 -1.683118 -1.867882
35.700000 -1.718657 -1.867907
35.750000 -1.757770 -1.867932
35.800000 -1.799437 -1.867957
35.850000 -1.842579 -1.867981
35.900000 -1.886086 -1.868005
35.950000 -1.928847 -1.868028
36.000000 -1.969777 -1.868051
36.050000 -2.007844 -1.868074
36.100000 -2.042096 -1.868097
36.150000 -2.071686 -1.868119
36.200000 -2.095890 -1.868141
36.250000 -2.114126 -1.868162
36.300000 -2.125968 -1.868183
36.350000 -2.131157 -1.868204
36.400000 -2.129605 -1.868225
36.450000 -2.121396 -1.868245
36.500000 -2.106783 -1.868265
36.550000 -2.086181 -1.868284
36.600000 -2.060156 -1.868304
36.650000 -2.029408 -1.868323
36.700000 -1.994752 -1.868341
36.750000 -1.957097 -1.868360
36.800000 -1.917426 -1.868378
36.850000 -1.876763 -1.868396
36.900000 -1.836153 -1.868413
36.950000 -1.796631 -1.868431
37.000000 -1.759199 -1.868448
37.050000 -1.724798 -1.868465
37.100000 -1.694287 -1.868481
37.150000 -1.668419 -1.868498
37.200000 -1.647823 -1.868514
37.250000 -1.632991 -1.868530
37.300000 -1.624264 -1.868545
37.350000 -1.621826 -1.868560
37.400000 -1.625696 -1.868576
