time[ns] Raw_signal[mV]
-11.250000 -0.425085
-11.200000 -0.308604
-11.150000 -0.188698
-11.100000 -0.058515
-11.050000 0.023707
-11.000000 0.040837
-10.950000 0.057966
-10.900000 0.078521
-10.850000 0.081946
-10.800000 0.081947
-10.750000 0.102502
-10.700000 0.150464
-10.650000 0.222408
-10.600000 0.308056
-10.550000 0.369722
-10.500000 0.414258
-10.450000 0.458795
-10.400000 0.475924
-10.350000 0.448517
-10.300000 0.366296
-10.250000 0.249815
-10.200000 0.129910
-10.150000 -0.003700
-10.100000 -0.174995
-10.050000 -0.346290
-10.000000 -0.476473
-9.950000 -0.575824
-9.900000 -0.651193
-9.850000 -0.692305
-9.800000 -0.685452
-9.750000 -0.640916
-9.700000 -0.568972
-9.650000 -0.483325
-9.600000 -0.401103
-9.550000 -0.329160
-9.500000 -0.250364
-9.450000 -0.157865
-9.400000 -0.079070
-9.350000 -0.024256
-9.300000 0.030558
-9.250000 0.095650
-9.200000 0.177872
-9.150000 0.253241
-9.100000 0.311482
-9.050000 0.369721
-9.000000 0.434814
-8.950000 0.482776
-8.900000 0.479350
-8.850000 0.445092
-8.800000 0.380000
-8.750000 0.266945
-8.700000 0.153891
-8.650000 0.037411
-8.600000 -0.106477
-8.550000 -0.222957
-8.500000 -0.270920
-8.450000 -0.301753
-8.400000 -0.322309
-8.350000 -0.270920
-8.300000 -0.181847
-8.250000 -0.116755
-8.200000 -0.037960
-8.150000 0.085373
-8.100000 0.181297
-8.050000 0.239538
-8.000000 0.308056
-7.950000 0.362869
-7.900000 0.369722
-7.850000 0.345741
-7.800000 0.311482
-7.750000 0.280649
-7.700000 0.273797
-7.650000 0.287500
-7.600000 0.297778
-7.550000 0.311481
-7.500000 0.335463
-7.450000 0.345740
-7.400000 0.342315
-7.350000 0.342315
-7.300000 0.318333
-7.250000 0.270371
-7.200000 0.236112
-7.150000 0.195001
-7.100000 0.126483
-7.050000 0.044262
-7.000000 -0.020830
-6.950000 -0.068793
-6.900000 -0.106477
-6.850000 -0.151013
-6.800000 -0.192125
-6.750000 -0.198976
-6.700000 -0.192124
-6.650000 -0.209253
-6.600000 -0.229809
-6.550000 -0.226384
-6.500000 -0.216105
-6.450000 -0.216105
-6.400000 -0.222958
-6.350000 -0.205828
-6.300000 -0.147588
-6.250000 -0.065367
-6.200000 0.013429
-6.150000 0.085373
-6.100000 0.164169
-6.050000 0.242964
-6.000000 0.328611
-5.950000 0.421110
-5.900000 0.486202
-5.850000 0.506757
-5.800000 0.523886
-5.750000 0.527313
-5.700000 0.499906
-5.650000 0.462220
-5.600000 0.431388
-5.550000 0.397128
-5.500000 0.332037
-5.450000 0.270371
-5.400000 0.232686
-5.350000 0.174446
-5.300000 0.105928
-5.250000 0.071669
-5.200000 0.037410
-5.150000 -0.007126
-5.100000 -0.013978
-5.050000 0.044262
-5.000000 0.119631
-4.950000 0.198427
-4.900000 0.287500
-4.850000 0.362870
-4.800000 0.451943
-4.750000 0.537590
-4.700000 0.568424
-4.650000 0.534164
-4.600000 0.486202
-4.550000 0.414258
-4.500000 0.297778
-4.450000 0.184724
-4.400000 0.078521
-4.350000 -0.044811
-4.300000 -0.161291
-4.250000 -0.226383
-4.200000 -0.250364
-4.150000 -0.246939
-4.100000 -0.205828
-4.050000 -0.147587
-4.000000 -0.055089
-3.950000 0.068243
-3.900000 0.174446
-3.850000 0.263519
-3.800000 0.390277
-3.750000 0.534164
-3.700000 0.630089
-3.650000 0.702033
-3.600000 0.784255
-3.550000 0.818513
-3.500000 0.808235
-3.450000 0.797958
-3.400000 0.712311
-3.350000 0.513609
-3.300000 0.386851
-3.250000 0.379999
-3.200000 0.284074
-3.150000 0.081947
-3.100000 0.003152
-3.050000 0.013429
-3.000000 -0.075644
-2.950000 -0.174995
-2.900000 -0.205828
-2.850000 -0.298327
-2.800000 -0.373696
-2.750000 -0.246939
-2.700000 -0.178421
-2.650000 -0.373696
-2.600000 -0.486751
-2.550000 -0.397678
-2.500000 -0.486751
-2.450000 -0.692305
-2.400000 -0.620361
-2.350000 -0.476474
-2.300000 -0.558695
-2.250000 -0.521010
-2.200000 -0.205827
-2.150000 -0.037959
-2.100000 -0.127033
-2.050000 -0.120180
-2.000000 0.013429
-1.950000 0.129909
-1.900000 0.222408
-1.850000 0.195001
-1.800000 0.003151
-1.750000 -0.109902
-1.700000 -0.113329
-1.650000 -0.281198
-1.600000 -0.493603
-1.550000 -0.431937
-1.500000 -0.281197
-1.450000 -0.298327
-1.400000 -0.288049
-1.350000 -0.174995
-1.300000 -0.127033
-1.250000 0.003151
-1.200000 0.297778
-1.150000 0.362870
-1.100000 0.143613
-1.050000 0.119632
-1.000000 0.284074
-0.950000 0.246389
-0.900000 0.116205
-0.850000 0.143613
-0.800000 0.116206
-0.750000 -0.068792
-0.700000 -0.178421
-0.650000 -0.185272
-0.600000 -0.260642
-0.550000 -0.353141
-0.500000 -0.329160
-0.450000 -0.246938
-0.400000 -0.212679
-0.350000 -0.192124
-0.300000 -0.147588
-0.250000 -0.082496
-0.200000 -0.048236
-0.150000 -0.044811
-0.100000 -0.007126
-0.050000 0.061391
0.000000 0.023707
0.050000 -0.085921
0.100000 -0.065366
0.150000 0.037410
0.200000 -0.024256
0.250000 -0.188698
0.300000 -0.171569
0.350000 -0.000274
0.400000 0.081947
0.450000 0.099076
0.500000 0.184724
0.550000 0.273797
0.600000 0.273797
0.650000 0.290926
0.700000 0.427962
0.750000 0.636941
0.800000 0.887031
0.850000 1.257027
0.900000 1.815448
0.950000 2.569143
1.000000 3.600336
1.050000 5.015228
1.100000 6.769285
1.150000 8.824817
1.200000 11.250347
1.250000 14.042446
1.300000 16.992143
1.350000 20.010345
1.400000 23.169023
1.450000 26.440741
1.500000 29.637106
1.550000 32.686144
1.600000 35.632411
1.650000 38.417665
1.700000 40.894575
1.750000 43.070015
1.800000 45.033045
1.850000 46.742575
1.900000 48.078665
1.950000 49.031065
2.000000 49.675125
2.050000 50.017725
2.100000 49.980035
2.150000 49.514115
2.200000 48.664495
2.250000 47.530525
2.300000 46.139615
2.350000 44.464355
2.400000 42.532145
2.450000 40.421795
2.500000 38.147015
2.550000 35.697505
2.600000 33.169195
2.650000 30.658015
2.700000 28.119435
2.750000 25.556863
2.800000 23.182721
2.850000 21.079224
2.900000 19.153877
2.950000 17.458062
3.000000 16.149371
3.050000 15.183271
3.100000 14.480963
3.150000 14.152076
3.200000 14.203463
3.250000 14.443275
3.300000 14.816702
3.350000 15.395677
3.400000 16.125394
3.450000 16.844825
3.500000 17.512873
3.550000 18.156946
3.600000 18.749623
3.650000 19.246376
3.700000 19.647204
3.750000 19.955538
3.800000 20.137105
3.850000 20.195348
3.900000 20.154237
3.950000 19.986368
4.000000 19.681469
4.050000 19.253226
4.100000 18.718789
4.150000 18.071292
4.200000 17.290192
4.250000 16.375480
4.300000 15.388824
4.350000 14.395316
4.400000 13.364122
4.450000 12.284967
4.500000 11.240071
4.550000 10.270544
4.600000 9.355832
4.650000 8.523340
4.700000 7.821032
4.750000 7.235206
4.800000 6.776137
4.850000 6.440399
4.900000 6.169754
4.950000 5.974478
5.000000 5.905960
5.050000 5.929941
5.100000 6.008737
5.150000 6.149198
5.200000 6.347900
5.250000 6.574009
5.300000 6.803543
5.350000 7.067336
5.400000 7.365389
5.450000 7.683997
5.500000 8.006031
5.550000 8.314361
5.600000 8.574729
5.650000 8.766578
5.700000 8.872781
5.750000 8.896763
5.800000 8.848800
5.850000 8.708339
5.900000 8.447970
5.950000 8.088253
6.000000 7.660016
6.050000 7.187243
6.100000 6.669934
6.150000 6.118366
6.200000 5.577075
6.250000 5.094025
6.300000 4.686343
6.350000 4.323199
6.400000 4.011443
6.450000 3.754501
6.500000 3.531818
6.550000 3.336542
6.600000 3.172100
6.650000 3.024786
6.700000 2.894603
6.750000 2.757567
6.800000 2.599976
6.850000 2.438960
6.900000 2.305350
6.950000 2.199147
7.000000 2.147759
7.050000 2.202573
7.100000 2.339609
7.150000 2.490348
7.200000 2.685623
7.250000 2.956269
7.300000 3.237191
7.350000 3.490708
7.400000 3.720242
7.450000 3.901814
7.500000 3.997739
7.550000 4.004591
7.600000 3.936073
7.650000 3.785334
7.700000 3.542096
7.750000 3.254321
7.800000 2.973398
7.850000 2.702753
7.900000 2.428682
7.950000 2.151185
8.000000 1.921650
8.050000 1.753781
8.100000 1.616746
8.150000 1.507117
8.200000 1.421470
8.250000 1.356378
8.300000 1.298138
8.350000 1.236472
8.400000 1.178231
8.450000 1.113140
8.500000 1.030919
8.550000 0.952123
8.600000 0.890457
8.650000 0.842494
8.700000 0.791106
8.750000 0.756848
8.800000 0.739718
8.850000 0.732866
8.900000 0.722589
8.950000 0.746570
9.000000 0.794532
9.050000 0.852773
9.100000 0.907587
9.150000 0.979530
9.200000 1.075455
9.250000 1.167954
9.300000 1.226195
9.350000 1.287860
9.400000 1.390637
9.450000 1.493413
9.500000 1.544802
9.550000 1.575635
9.600000 1.609894
9.650000 1.603042
9.700000 1.555080
9.750000 1.493414
9.800000 1.404340
9.850000 1.263879
9.900000 1.119992
9.950000 0.993234
10.000000 0.849346
10.050000 0.719162
10.100000 0.619811
10.150000 0.551294
10.200000 0.506757
10.250000 0.486202
10.300000 0.472498
10.350000 0.458794
10.400000 0.462221
10.450000 0.465647
10.500000 0.427962
10.550000 0.345740
10.600000 0.249815
10.650000 0.153890
10.700000 0.057966
10.750000 -0.031108
10.800000 -0.106477
10.850000 -0.174995
10.900000 -0.229809
10.950000 -0.229810
11.000000 -0.178420
11.050000 -0.106477
11.100000 -0.007127
11.150000 0.119631
11.200000 0.246390
11.250000 0.345740
11.300000 0.441665
11.350000 0.530739
11.400000 0.578701
11.450000 0.575275
11.500000 0.554720
11.550000 0.561572
11.600000 0.564998
11.650000 0.564997
11.700000 0.602682
11.750000 0.657496
11.800000 0.688329
11.850000 0.722588
11.900000 0.784255
11.950000 0.811661
12.000000 0.760273
12.050000 0.698607
12.100000 0.606108
12.150000 0.448517
12.200000 0.260093
12.250000 0.071669
12.300000 -0.133884
12.350000 -0.339438
12.400000 -0.500455
12.450000 -0.623787
12.500000 -0.723138
12.550000 -0.784804
12.600000 -0.819062
12.650000 -0.832766
12.700000 -0.781378
12.750000 -0.716285
12.800000 -0.702582
12.850000 -0.688878
12.900000 -0.599805
12.950000 -0.497029
13.000000 -0.425084
13.050000 -0.342864
13.100000 -0.274345
13.150000 -0.246939
13.200000 -0.202402
13.250000 -0.137310
13.300000 -0.113329
13.350000 -0.099626
13.400000 -0.079070
13.450000 -0.130458
13.500000 -0.212680
13.550000 -0.233235
13.600000 -0.229809
13.650000 -0.267494
13.700000 -0.274345
13.750000 -0.246939
13.800000 -0.250364
13.850000 -0.274346
13.900000 -0.288049
13.950000 -0.332586
14.000000 -0.418233
14.050000 -0.503881
14.100000 -0.572398
14.150000 -0.640916
14.200000 -0.695730
14.250000 -0.747119
14.300000 -0.808785
14.350000 -0.839617
14.400000 -0.815636
14.450000 -0.781378
14.500000 -0.760822
14.550000 -0.740267
14.600000 -0.723138
14.650000 -0.712860
14.700000 -0.723137
14.750000 -0.743693
14.800000 -0.753971
14.850000 -0.736841
14.900000 -0.712860
14.950000 -0.671749
15.000000 -0.558695
15.050000 -0.421659
15.100000 -0.315456
15.150000 -0.192124
15.200000 -0.024256
15.250000 0.119631
15.300000 0.184723
15.350000 0.208705
15.400000 0.184724
15.450000 0.099076
15.500000 -0.034534
15.550000 -0.185273
15.600000 -0.349715
15.650000 -0.531287
15.700000 -0.719711
15.750000 -0.873877
15.800000 -0.962950
15.850000 -1.021190
15.900000 -1.089708
15.950000 -1.130819
16.000000 -1.089708
16.050000 -1.010912
16.100000 -0.966376
16.150000 -0.942395
16.200000 -0.914987
16.250000 -0.921839
16.300000 -0.959524
16.350000 -0.980079
16.400000 -0.990357
16.450000 -1.010912
16.500000 -1.024616
16.550000 -1.004060
16.600000 -0.959524
16.650000 -0.880728
16.700000 -0.784803
16.750000 -0.695730
16.800000 -0.579250
16.850000 -0.449066
16.900000 -0.349715
16.950000 -0.301752
17.000000 -0.270919
17.050000 -0.267494
17.100000 -0.322309
17.150000 -0.425085
17.200000 -0.541565
17.250000 -0.671749
17.300000 -0.815636
17.350000 -0.952672
17.400000 -1.065726
17.450000 -1.151374
17.500000 -1.206188
17.550000 -1.219891
17.600000 -1.209613
17.650000 -1.209613
17.700000 -1.202762
17.750000 -1.171929
17.800000 -1.137670
17.850000 -1.099985
17.900000 -1.045171
17.950000 -0.983505
18.000000 -0.935543
18.050000 -0.897858
18.100000 -0.860173
18.150000 -0.825914
18.200000 -0.774525
18.250000 -0.695730
18.300000 -0.603231
18.350000 -0.534714
18.400000 -0.476473
18.450000 -0.394251
18.500000 -0.301753
18.550000 -0.222957
18.600000 -0.133884
18.650000 -0.037959
18.700000 0.030558
18.750000 0.057966
18.800000 0.061392
18.850000 0.030558
18.900000 -0.024256
18.950000 -0.099625
19.000000 -0.216106
19.050000 -0.370270
19.100000 -0.521010
19.150000 -0.668323
19.200000 -0.812211
19.250000 -0.901284
19.300000 -0.949246
19.350000 -0.976654
19.400000 -0.973228
19.450000 -0.911561
19.500000 -0.822489
19.550000 -0.716286
19.600000 -0.599805
19.650000 -0.503881
19.700000 -0.455918
19.750000 -0.442214
19.800000 -0.438788
19.850000 -0.452492
19.900000 -0.490177
19.950000 -0.534713
20.000000 -0.592953
20.050000 -0.613509
20.100000 -0.599805
20.150000 -0.586102
20.200000 -0.572398
20.250000 -0.507306
20.300000 -0.435362
20.350000 -0.397678
20.400000 -0.349716
20.450000 -0.294901
20.500000 -0.284624
20.550000 -0.291475
20.600000 -0.267494
20.650000 -0.236661
20.700000 -0.229809
20.750000 -0.205827
20.800000 -0.140736
20.850000 -0.068792
20.900000 -0.010552
20.950000 0.027133
21.000000 0.030559
21.050000 0.006577
21.100000 -0.034534
21.150000 -0.109903
21.200000 -0.243513
21.250000 -0.414807
21.300000 -0.596380
21.350000 -0.795081
21.400000 -0.980079
21.450000 -1.123966
21.500000 -1.226743
21.550000 -1.288409
21.600000 -1.284983
21.650000 -1.243873
21.700000 -1.171929
21.750000 -1.041745
21.800000 -0.884154
21.850000 -0.723137
21.900000 -0.562120
21.950000 -0.414807
22.000000 -0.288049
22.050000 -0.181846
22.100000 -0.123606
22.150000 -0.123606
22.200000 -0.154439
22.250000 -0.226383
22.300000 -0.356567
22.350000 -0.490177
22.400000 -0.582676
22.450000 -0.678601
22.500000 -0.784803
22.550000 -0.822488
22.600000 -0.825914
22.650000 -0.829340
22.700000 -0.795080
22.750000 -0.716286
22.800000 -0.668323
22.850000 -0.647768
22.900000 -0.627212
22.950000 -0.647767
23.000000 -0.740267
23.050000 -0.853321
23.100000 -0.993783
23.150000 -1.151373
23.200000 -1.267853
23.250000 -1.336371
23.300000 -1.422019
23.350000 -1.483685
23.400000 -1.469981
23.450000 -1.425445
23.500000 -1.367204
23.550000 -1.278132
23.600000 -1.185632
23.650000 -1.096559
23.700000 -1.010912
23.750000 -0.928691
23.800000 -0.877302
23.850000 -0.849895
23.900000 -0.846469
23.950000 -0.863598
24.000000 -0.849896
24.050000 -0.819062
24.100000 -0.815636
24.150000 -0.843043
24.200000 -0.849895
24.250000 -0.836192
24.300000 -0.822488
24.350000 -0.808785
24.400000 -0.771100
24.450000 -0.712860
24.500000 -0.664897
24.550000 -0.634065
24.600000 -0.613509
24.650000 -0.589527
24.700000 -0.572398
24.750000 -0.572398
24.800000 -0.575824
24.850000 -0.592954
24.900000 -0.658045
24.950000 -0.767674
25.000000 -0.867025
25.050000 -0.956098
25.100000 -1.052023
25.150000 -1.141096
25.200000 -1.202762
25.250000 -1.261002
25.300000 -1.319242
25.350000 -1.363779
25.400000 -1.398038
25.450000 -1.428871
25.500000 -1.435722
25.550000 -1.425445
25.600000 -1.422018
25.650000 -1.404890
25.700000 -1.370630
25.750000 -1.350075
25.800000 -1.326094
25.850000 -1.261002
25.900000 -1.195910
25.950000 -1.168503
26.000000 -1.137670
26.050000 -1.062301
26.100000 -0.990357
26.150000 -0.976653
26.200000 -0.980079
26.250000 -0.966376
26.300000 -0.962949
26.350000 -0.973228
26.400000 -0.956098
26.450000 -0.921839
26.500000 -0.918413
26.550000 -0.932117
26.600000 -0.908135
26.650000 -0.877303
26.700000 -0.856747
26.750000 -0.836192
26.800000 -0.801932
26.850000 -0.784803
26.900000 -0.801933
26.950000 -0.832765
27.000000 -0.880728
27.050000 -0.959524
27.100000 -1.034893
27.150000 -1.096559
27.200000 -1.154800
27.250000 -1.213040
27.300000 -1.233595
27.350000 -1.230169
27.400000 -1.206188
27.450000 -1.158225
27.500000 -1.103411
27.550000 -1.072578
27.600000 -1.017764
27.650000 -0.904710
27.700000 -0.825914
27.750000 -0.825914
27.800000 -0.849895
27.850000 -0.860173
27.900000 -0.877303
27.950000 -0.911561
28.000000 -0.925265
28.050000 -0.921839
28.100000 -0.932117
28.150000 -0.959523
28.200000 -0.990357
28.250000 -1.028042
28.300000 -1.093134
28.350000 -1.192484
28.400000 -1.298687
28.450000 -1.415167
28.500000 -1.562481
28.550000 -1.702942
28.600000 -1.798866
28.650000 -1.894792
28.700000 -2.004420
28.750000 -2.059235
28.800000 -2.024976
28.850000 -1.949606
28.900000 -1.853681
28.950000 -1.723497
29.000000 -1.576184
29.050000 -1.428871
29.100000 -1.267854
29.150000 -1.110263
29.200000 -0.980079
29.250000 -0.863599
29.300000 -0.750544
29.350000 -0.664897
29.400000 -0.610083
29.450000 -0.592953
29.500000 -0.620361
29.550000 -0.671749
29.600000 -0.729989
29.650000 -0.808784
29.700000 -0.914987
29.750000 -1.045171
29.800000 -1.175355
29.850000 -1.274706
29.900000 -1.367205
29.950000 -1.469981
30.000000 -1.548776
30.050000 -1.576184
30.100000 -1.572758
30.150000 -1.552203
30.200000 -1.500814
30.250000 -1.415168
30.300000 -1.308965
30.350000 -1.192485
30.400000 -1.082856
30.450000 -0.986931
30.500000 -0.904710
30.550000 -0.846469
30.600000 -0.808785
30.650000 -0.774526
30.700000 -0.753970
30.750000 -0.757396
30.800000 -0.788229
30.850000 -0.812210
30.900000 -0.839618
30.950000 -0.904710
31.000000 -0.993782
31.050000 -1.045171
31.100000 -1.076004
31.150000 -1.130818
31.200000 -1.182206
31.250000 -1.209614
31.300000 -1.223317
31.350000 -1.182207
31.400000 -1.099985
31.450000 -1.052023
31.500000 -1.014338
31.550000 -0.914987
31.600000 -0.822488
31.650000 -0.781377
31.700000 -0.740266
31.750000 -0.688878
31.800000 -0.702582
31.850000 -0.740266
31.900000 -0.774526
31.950000 -0.839618
32.000000 -0.932116
32.050000 -0.997209
32.100000 -1.034893
32.150000 -1.065726
32.200000 -1.072578
32.250000 -1.072578
32.300000 -1.099985
32.350000 -1.134244
32.400000 -1.154799
32.450000 -1.178781
32.500000 -1.213040
32.550000 -1.267854
32.600000 -1.332946
32.650000 -1.374056
32.700000 -1.384334
32.750000 -1.418592
32.800000 -1.449426
32.850000 -1.425445
32.900000 -1.387760
32.950000 -1.367204
33.000000 -1.305539
33.050000 -1.199336
33.100000 -1.141096
33.150000 -1.117115
33.200000 -1.079430
33.250000 -1.041745
33.300000 -1.038319
33.350000 -1.041745
33.400000 -1.038319
33.450000 -1.031468
33.500000 -1.034894
33.550000 -1.052022
33.600000 -1.065726
33.650000 -1.048597
33.700000 -1.017764
33.750000 -1.017764
33.800000 -1.034893
33.850000 -1.052023
33.900000 -1.093134
33.950000 -1.158225
34.000000 -1.213039
34.050000 -1.226743
34.100000 -1.226743
34.150000 -1.216466
34.200000 -1.168503
34.250000 -1.113689
34.300000 -1.058874
34.350000 -0.986931
34.400000 -0.891006
34.450000 -0.819062
34.500000 -0.764248
34.550000 -0.726563
34.600000 -0.706008
34.650000 -0.729989
34.700000 -0.812211
34.750000 -0.911561
34.800000 -0.990357
34.850000 -1.065727
34.900000 -1.141096
34.950000 -1.158226
35.000000 -1.147948
35.050000 -1.147947
35.100000 -1.130818
35.150000 -1.086282
35.200000 -1.045170
35.250000 -1.010912
35.300000 -0.966375
35.350000 -0.935542
35.400000 -0.932117
35.450000 -0.956098
35.500000 -1.024616
35.550000 -1.127392
35.600000 -1.230169
35.650000 -1.332945
35.700000 -1.435723
35.750000 -1.521370
35.800000 -1.576184
35.850000 -1.624147
35.900000 -1.644701
35.950000 -1.610442
36.000000 -1.559055
36.050000 -1.500814
36.100000 -1.432296
36.150000 -1.363779
36.200000 -1.329520
36.250000 -1.322668
36.300000 -1.329520
36.350000 -1.356927
36.400000 -1.394612
36.450000 -1.456278
36.500000 -1.548777
36.550000 -1.641276
36.600000 -1.702942
36.650000 -1.740627
36.700000 -1.757757
36.750000 -1.726923
36.800000 -1.648128
36.850000 -1.528221
36.900000 -1.391186
36.950000 -1.250724
37.000000 -1.120541
37.050000 -0.997208
37.100000 -0.904709
37.150000 -0.870450
37.200000 -0.867024
37.250000 -0.901283
37.300000 -0.986931
37.350000 -1.099985
37.400000 -1.185632
37.450000 -1.250725
37.500000 -1.322668
37.550000 -1.356927
37.600000 -1.346649
37.650000 -1.308965
37.700000 -1.291835
37.750000 -1.257576
37.800000 -1.192484
37.850000 -1.134244
37.900000 -1.123966
37.950000 -1.127392
38.000000 -1.099985
38.050000 -1.062300
38.100000 -1.055449
38.150000 -1.055449
38.200000 -1.010912
38.250000 -0.945820
38.300000 -0.911561
38.350000 -0.904710
38.400000 -0.884154
38.450000 -0.856747
38.500000 -0.849895
38.550000 -0.870451
38.600000 -0.911561
38.650000 -0.959524
38.700000 -1.014338
38.750000 -1.086282
38.800000 -1.171929
38.850000 -1.254150
38.900000 -1.346649
38.950000 -1.446000
39.000000 -1.500815
39.050000 -1.507666
39.100000 -1.524796
39.150000 -1.538499
39.200000 -1.493963
39.250000 -1.408315
39.300000 -1.329520
39.350000 -1.264427
39.400000 -1.213039
39.450000 -1.182207
39.500000 -1.175354
39.550000 -1.206188
39.600000 -1.271280
39.650000 -1.353501
39.700000 -1.449426
39.750000 -1.545351
39.800000 -1.613869
